[FileHeader]
Idn=THEX 1.0 for LINUX
Insert=A
Cell=C
p_Cell=300 mB (RT)        
p_Heater=DiffP              
T_Slope=0.000000
H_Field=0.000000
K0=6.048000
CalFile=NULL
SampleSensor=GaAs9356
HeaterSensor=9243
L0=2.600000
SampleID=Silberstempel 2.60 mm CStart=4.78 pF
;
StartTime=Thu Jan  9 13:18:55 2003
EndTime=Fri Jan 10 04:41:21 2003
NoofCols=5
DataPoints=668
ColID1=T [K]
ColID2=C [pF]
ColID3=Usens [V]
ColID4=t [s]
ColID5=Date [s]
#XMeas: CreationTime=Fri Jan 10 04:41:21 2003
@EOH
20.277  4.7323710   2.80278  1.1040000  1042115578  
20.679  4.7323780   2.75848  154.62400  1042115732  
21.083  4.7323740   2.71449  226.57400  1042115804  
21.484  4.7323760   2.67161  291.65400  1042115869  
21.885  4.7323770   2.62931  356.95400  1042115934  
22.289  4.7323760   2.58739  424.36400  1042116001  
22.691  4.7323740   2.54639  492.88400  1042116070  
23.097  4.7323720   2.50580  563.70400  1042116141  
23.502  4.7323720   2.46603  635.67400  1042116213  
23.905  4.7323700   2.42724  708.79400  1042116286  
24.307  4.7323710   2.38935  783.05400  1042116360  
24.707  4.7323720   2.35232  858.46400  1042116436  
25.110  4.7323710   2.31575  936.14400  1042116513  
25.511  4.7323710   2.28019  1014.9440  1042116592  
25.915  4.7323710   2.24517  1095.1240  1042116672  
26.315  4.7323700   2.21126  1175.0940  1042116752  
26.717  4.7323670   2.17798  1257.2940  1042116834  
27.121  4.7323670   2.14532  1344.0940  1042116921  
27.524  4.7323680   2.11357  1433.2140  1042117010  
27.927  4.7323690   2.08273  1516.6140  1042117094  
28.332  4.7323690   2.05263  1596.6340  1042117174  
28.735  4.7323690   2.02349  1682.3340  1042117259  
29.140  4.7323690   1.99517  1773.7140  1042117351  
29.541  4.7323690   1.96797  1864.0140  1042117441  
29.941  4.7323720   1.94170  1954.2840  1042117531  
30.343  4.7323710   1.91622  2045.8640  1042117623  
30.747  4.7323640   1.89145  2138.4240  1042117715  
31.148  4.7323700   1.86771  2230.9550  1042117808  
31.551  4.7323760   1.84483  2323.4840  1042117901  
31.952  4.7323760   1.82291  2416.0640  1042117993  
32.356  4.7323710   1.80170  2509.7840  1042118087  
32.760  4.7323720   1.78142  2603.4840  1042118181  
33.164  4.7323700   1.76197  2697.2640  1042118274  
33.568  4.7323750   1.74340  2791.0640  1042118368  
33.971  4.7323760   1.72570  2884.8040  1042118462  
34.374  4.7323830   1.70886  2978.5440  1042118556  
34.777  4.7323870   1.69278  3073.5040  1042118651  
35.181  4.7323950   1.67748  3176.4240  1042118753  
35.586  4.7323920   1.66298  3277.0940  1042118854  
35.989  4.7323890   1.64930  3372.0240  1042118949  
36.395  4.7323870   1.63628  3463.6740  1042119041  
36.795  4.7323850   1.62412  3551.7540  1042119129  
37.196  4.7323850   1.61263  3636.4340  1042119213  
37.600  4.7323750   1.60173  3719.8940  1042119297  
38.004  4.7323770   1.59148  3803.3240  1042119380  
38.407  4.7323800   1.58185  3885.5850  1042119463  
38.813  4.7323840   1.57274  3964.4540  1042119541  
39.216  4.7323860   1.56428  4038.7140  1042119616  
39.620  4.7323870   1.55634  4112.9740  1042119690  
40.022  4.7323880   1.54896  4189.5040  1042119767  
40.425  4.7323900   1.54200  4270.6740  1042119848  
40.826  4.7323890   1.53554  4354.1540  1042119931  
41.229  4.7323920   1.52947  4439.9440  1042120017  
41.632  4.7323880   1.52383  4526.8440  1042120104  
42.035  4.7323970   1.51856  4616.0440  1042120193  
42.436  4.7323980   1.51367  4709.9940  1042120287  
42.836  4.7324030   1.50910  4809.5440  1042120387  
43.236  4.7324050   1.50485  4915.9540  1042120493  
43.638  4.7324070   1.50088  5028.0240  1042120605  
44.040  4.7324120   1.49718  5141.2740  1042120718  
44.442  4.7324050   1.49372  5254.6240  1042120832  
44.845  4.7324100   1.49048  5361.0240  1042120938  
45.249  4.7324000   1.48746  5459.3940  1042121036  
45.653  4.7324010   1.48465  5546.3340  1042121123  
46.053  4.7324060   1.48205  5622.9540  1042121200  
46.460  4.7324110   1.47958  5692.6540  1042121270  
46.870  4.7324150   1.47725  5759.0040  1042121336  
47.274  4.7324190   1.47510  5824.0940  1042121401  
47.680  4.7324250   1.47308  5889.2440  1042121466  
48.083  4.7324350   1.47120  5955.4940  1042121533  
48.487  4.7324420   1.46943  6025.1440  1042121602  
48.888  4.7324490   1.46777  6098.2740  1042121675  
49.288  4.7324520   1.46621  6173.6240  1042121751  
49.696  4.7324570   1.46471  6254.7040  1042121832  
50.104  4.7324620   1.46329  6339.5040  1042121917  
50.510  4.7324670   1.46195  6429.9940  1042122007  
50.913  4.7324700   1.46069  6523.8040  1042122101  
51.315  4.7324710   1.45949  6619.8540  1042122197  
51.716  4.7324740   1.45835  6718.1840  1042122295  
52.121  4.7324800   1.45725  6815.3840  1042122392  
52.525  4.7324840   1.45620  6915.9840  1042122493  
52.926  4.7324910   1.45520  7012.0040  1042122589  
53.326  4.7324980   1.45424  7109.1440  1042122686  
53.729  4.7325000   1.45331  7198.3640  1042122775  
54.130  4.7325100   1.45242  7288.7740  1042122866  
54.532  4.7325180   1.45156  7375.6140  1042122953  
54.932  4.7325290   1.45073  7456.7740  1042123034  
55.336  4.7325340   1.44992  7541.3740  1042123118  
55.737  4.7325440   1.44914  7622.5640  1042123200  
56.138  4.7325560   1.44838  7708.3240  1042123285  
56.545  4.7325680   1.44763  7791.7640  1042123369  
56.951  4.7325720   1.44690  7872.9340  1042123450  
57.355  4.7325850   1.44619  7958.6350  1042123536  
57.758  4.7325980   1.44550  8037.5040  1042123615  
58.163  4.7326080   1.44482  8123.2440  1042123700  
58.566  4.7326210   1.44416  8203.2340  1042123780  
58.970  4.7326330   1.44351  8289.0440  1042123866  
59.376  4.7326450   1.44287  8371.3840  1042123948  
59.782  4.7326560   1.44224  8454.7840  1042124032  
60.183  4.7326670   1.44163  8533.8640  1042124111  
60.583  4.7326800   1.44103  8616.2340  1042124193  
60.989  4.7326900   1.44043  8697.3740  1042124274  
61.395  4.7327030   1.43984  8777.4340  1042124354  
61.798  4.7327140   1.43926  8861.9840  1042124439  
62.200  4.7327260   1.43869  8938.5340  1042124516  
62.606  4.7327400   1.43812  9025.4940  1042124603  
63.009  4.7327510   1.43756  9103.2640  1042124680  
63.417  4.7327670   1.43700  9187.8540  1042124765  
63.828  4.7327720   1.43644  9266.7240  1042124844  
64.228  4.7327890   1.43590  9352.5440  1042124930  
64.631  4.7328040   1.43536  9432.5340  1042125010  
65.037  4.7328090   1.43482  9519.3540  1042125096  
65.447  4.7328230   1.43428  9599.4140  1042125176  
65.859  4.7328330   1.43374  9686.2750  1042125263  
66.266  4.7328480   1.43321  9767.4540  1042125344  
66.675  4.7328530   1.43268  9851.0040  1042125428  
67.087  4.7328640   1.43215  9932.1440  1042125509  
67.493  4.7328760   1.43163  10020.164  1042125597  
67.893  4.7328890   1.43112  10096.664  1042125674  
68.295  4.7328990   1.43061  10181.254  1042125758  
68.699  4.7329120   1.43010  10261.234  1042125838  
69.104  4.7329220   1.42959  10343.544  1042125921  
69.511  4.7329340   1.42908  10426.944  1042126004  
69.911  4.7329470   1.42858  10511.584  1042126089  
70.320  4.7329590   1.42807  10590.414  1042126167  
70.722  4.7329690   1.42757  10677.334  1042126254  
71.134  4.7329820   1.42706  10759.654  1042126337  
71.546  4.7329880   1.42655  10845.674  1042126423  
71.958  4.7330010   1.42604  10930.244  1042126507  
72.364  4.7330140   1.42554  11011.384  1042126588  
72.769  4.7330300   1.42504  11100.544  1042126678  
73.174  4.7330400   1.42454  11181.764  1042126759  
73.580  4.7330520   1.42404  11266.374  1042126843  
73.986  4.7330610   1.42354  11350.964  1042126928  
74.392  4.7330730   1.42304  11436.794  1042127014  
74.798  4.7330890   1.42254  11520.284  1042127097  
75.204  4.7331020   1.42204  11609.524  1042127187  
75.609  4.7331080   1.42154  11690.764  1042127268  
76.015  4.7331210   1.42104  11781.215  1042127358  
76.420  4.7331310   1.42054  11864.714  1042127442  
76.826  4.7331410   1.42004  11953.984  1042127531  
77.230  4.7331530   1.41954  12037.504  1042127615  
77.643  4.7331660   1.41903  12128.934  1042127706  
78.048  4.7331780   1.41853  12211.234  1042127788  
78.451  4.7331900   1.41803  12300.424  1042127877  
78.855  4.7332030   1.41753  12382.754  1042127960  
79.266  4.7332200   1.41702  12471.934  1042128049  
79.669  4.7332350   1.41652  12558.774  1042128136  
80.071  4.7332490   1.41602  12643.495  1042128221  
80.472  4.7332950   1.41552  12731.614  1042128309  
80.881  4.7332850   1.41501  12816.294  1042128393  
81.281  4.7332960   1.41451  12904.344  1042128481  
81.688  4.7333270   1.41400  12991.274  1042128568  
82.095  4.7333280   1.41349  13082.774  1042128660  
82.500  4.7333250   1.41298  13167.514  1042128745  
82.905  4.7333570   1.41247  13259.114  1042128836  
83.309  4.7333670   1.41196  13340.274  1042128917  
83.712  4.7333810   1.41145  13431.804  1042129009  
84.115  4.7333910   1.41094  13515.234  1042129092  
84.516  4.7334030   1.41043  13604.434  1042129181  
84.932  4.7334100   1.40990  13691.334  1042129268  
85.347  4.7334210   1.40937  13786.304  1042129363  
85.753  4.7334260   1.40885  13874.314  1042129451  
86.166  4.7334340   1.40832  13965.804  1042129543  
86.570  4.7334410   1.40780  14054.974  1042129632  
86.972  4.7334490   1.40728  14141.874  1042129719  
87.382  4.7334570   1.40675  14227.574  1042129805  
87.782  4.7334570   1.40623  14317.984  1042129895  
88.189  4.7334650   1.40570  14407.154  1042129984  
88.595  4.7334700   1.40517  14497.524  1042130075  
88.999  4.7334760   1.40464  14586.754  1042130164  
89.403  4.7334790   1.40411  14673.664  1042130251  
89.813  4.7334870   1.40357  14763.984  1042130341  
90.229  4.7334920   1.40302  14852.324  1042130429  
90.644  4.7334960   1.40247  14947.214  1042130524  
91.050  4.7334980   1.40193  15033.024  1042130610  
91.470  4.7335050   1.40137  15125.674  1042130703  
91.874  4.7335090   1.40083  15212.574  1042130790  
92.284  4.7335070   1.40028  15302.974  1042130880  
92.693  4.7335170   1.39973  15387.554  1042130965  
93.100  4.7335210   1.39918  15481.394  1042131058  
93.513  4.7335230   1.39862  15566.064  1042131143  
93.917  4.7335240   1.39807  15656.424  1042131233  
94.326  4.7335290   1.39751  15741.095  1042131318  
94.735  4.7335280   1.39695  15830.294  1042131407  
95.141  4.7335280   1.39639  15916.074  1042131493  
95.545  4.7335310   1.39583  16005.274  1042131582  
95.948  4.7335340   1.39527  16086.534  1042131664  
96.348  4.7335350   1.39471  16180.344  1042131757  
96.754  4.7335400   1.39414  16260.434  1042131837  
97.157  4.7335370   1.39357  16348.524  1042131926  
97.559  4.7335410   1.39300  16430.834  1042132008  
97.973  4.7335430   1.39241  16522.324  1042132099  
98.379  4.7335410   1.39183  16605.854  1042132183  
98.782  4.7335460   1.39125  16695.074  1042132272  
99.185  4.7335480   1.39067  16773.984  1042132351  
99.592  4.7335490   1.39008  16865.554  1042132443  
100.01  4.7335470   1.38948  16946.754  1042132524  
100.41  4.7335510   1.38889  17039.524  1042132617  
100.81  4.7335540   1.38830  17117.304  1042132694  
101.22  4.7335590   1.38770  17208.814  1042132786  
101.63  4.7335580   1.38711  17288.904  1042132866  
102.03  4.7335580   1.38651  17376.974  1042132954  
102.45  4.7335590   1.38590  17459.234  1042133036  
102.85  4.7335580   1.38530  17548.444  1042133125  
103.25  4.7335540   1.38470  17627.334  1042133204  
103.66  4.7335540   1.38410  17710.834  1042133288  
104.06  4.7335510   1.38350  17790.914  1042133368  
104.46  4.7335430   1.38289  17875.544  1042133453  
104.87  4.7335360   1.38228  17957.954  1042133535  
105.27  4.7335280   1.38167  18040.224  1042133617  
105.67  4.7335250   1.38106  18124.904  1042133702  
106.08  4.7335120   1.38045  18201.594  1042133779  
106.49  4.7335050   1.37982  18287.424  1042133864  
106.89  4.7334900   1.37920  18365.224  1042133942  
107.30  4.7334760   1.37858  18448.734  1042134026  
107.71  4.7334600   1.37795  18526.424  1042134103  
108.11  4.7334430   1.37732  18608.704  1042134186  
108.52  4.7334240   1.37668  18693.274  1042134270  
108.93  4.7334030   1.37605  18773.284  1042134350  
109.34  4.7333860   1.37541  18855.614  1042134433  
109.74  4.7333600   1.37478  18929.954  1042134507  
110.14  4.7333370   1.37414  19014.634  1042134592  
110.55  4.7333100   1.37349  19088.924  1042134666  
110.96  4.7332830   1.37285  19172.364  1042134749  
111.36  4.7332550   1.37221  19247.984  1042134825  
111.77  4.7332240   1.37155  19328.015  1042134905  
112.18  4.7331900   1.37089  19410.445  1042134987  
112.58  4.7331570   1.37024  19484.784  1042135062  
112.98  4.7331250   1.36959  19564.864  1042135142  
113.39  4.7330850   1.36893  19641.424  1042135218  
113.79  4.7330490   1.36827  19720.324  1042135297  
114.20  4.7330120   1.36760  19800.324  1042135377  
114.61  4.7329680   1.36693  19876.874  1042135454  
115.01  4.7329290   1.36626  19956.924  1042135534  
115.41  4.7328860   1.36559  20031.334  1042135608  
115.82  4.7328420   1.36491  20113.694  1042135691  
116.23  4.7327960   1.36423  20188.054  1042135765  
116.64  4.7327480   1.36354  20266.894  1042135844  
117.05  4.7326970   1.36285  20345.764  1042135923  
117.45  4.7326510   1.36217  20420.184  1042135997  
117.85  4.7326010   1.36148  20501.334  1042136078  
118.26  4.7325460   1.36079  20574.484  1042136152  
118.66  4.7324920   1.36010  20654.534  1042136232  
119.07  4.7324340   1.35940  20731.134  1042136308  
119.48  4.7323800   1.35869  20807.764  1042136385  
119.88  4.7323260   1.35799  20889.034  1042136466  
120.29  4.7322630   1.35729  20961.024  1042136538  
120.70  4.7322070   1.35657  21042.144  1042136619  
121.12  4.7321420   1.35584  21118.864  1042136696  
121.52  4.7320810   1.35513  21197.734  1042136775  
121.93  4.7320190   1.35440  21275.444  1042136852  
122.34  4.7319560   1.35368  21350.864  1042136928  
122.74  4.7318900   1.35296  21432.054  1042137009  
123.15  4.7318260   1.35224  21504.074  1042137081  
123.55  4.7317560   1.35152  21585.264  1042137162  
123.95  4.7316940   1.35080  21658.494  1042137236  
124.36  4.7316260   1.35007  21736.384  1042137313  
124.76  4.7315590   1.34934  21815.294  1042137392  
125.16  4.7314910   1.34861  21887.334  1042137464  
125.57  4.7314220   1.34787  21969.734  1042137547  
125.97  4.7313540   1.34713  22041.734  1042137619  
126.38  4.7312810   1.34639  22121.854  1042137699  
126.79  4.7312110   1.34563  22198.494  1042137776  
127.19  4.7311350   1.34488  22275.064  1042137852  
127.60  4.7310790   1.34413  22356.224  1042137933  
128.00  4.7309950   1.34338  22427.094  1042138004  
128.41  4.7309200   1.34262  22508.304  1042138085  
128.81  4.7308540   1.34186  22582.594  1042138160  
129.22  4.7307640   1.34110  22661.544  1042138239  
129.62  4.7306950   1.34034  22738.214  1042138315  
130.02  4.7306140   1.33958  22812.544  1042138390  
130.43  4.7305340   1.33881  22893.734  1042138471  
130.83  4.7304630   1.33804  22969.164  1042138546  
131.23  4.7303810   1.33727  23048.054  1042138625  
131.63  4.7303100   1.33650  23123.524  1042138701  
132.04  4.7302320   1.33572  23203.594  1042138781  
132.44  4.7301390   1.33494  23280.284  1042138857  
132.85  4.7300850   1.33416  23355.825  1042138933  
133.25  4.7300140   1.33338  23438.144  1042139015  
133.66  4.7299290   1.33258  23512.514  1042139090  
134.06  4.7298260   1.33178  23597.144  1042139174  
134.47  4.7297500   1.33099  23671.454  1042139248  
134.87  4.7296660   1.33019  23755.004  1042139332  
135.28  4.7295830   1.32938  23832.754  1042139410  
135.68  4.7295140   1.32858  23912.744  1042139490  
136.09  4.7294200   1.32778  23992.764  1042139570  
136.49  4.7293410   1.32697  24068.184  1042139645  
136.90  4.7292520   1.32616  24155.034  1042139732  
137.30  4.7291670   1.32534  24231.614  1042139809  
137.71  4.7290800   1.32453  24316.284  1042139893  
138.11  4.7290000   1.32372  24391.754  1042139969  
138.51  4.7289130   1.32289  24477.514  1042140055  
138.92  4.7288280   1.32207  24552.964  1042140130  
139.32  4.7287390   1.32125  24637.634  1042140215  
139.72  4.7286530   1.32042  24717.734  1042140295  
140.13  4.7285670   1.31959  24801.214  1042140378  
140.53  4.7284820   1.31876  24881.294  1042140458  
140.93  4.7283920   1.31793  24962.444  1042140539  
141.33  4.7283050   1.31710  25045.934  1042140623  
141.74  4.7282190   1.31625  25124.824  1042140702  
142.15  4.7281350   1.31540  25210.574  1042140788  
142.55  4.7280490   1.31456  25288.274  1042140865  
142.95  4.7279620   1.31372  25374.104  1042140951  
143.36  4.7278720   1.31287  25455.285  1042141032  
143.77  4.7277830   1.31200  25543.314  1042141120  
144.17  4.7276940   1.31115  25621.054  1042141198  
144.57  4.7276070   1.31030  25708.084  1042141285  
144.97  4.7275180   1.30944  25786.935  1042141364  
145.38  4.7274290   1.30858  25873.784  1042141451  
145.78  4.7273400   1.30772  25952.684  1042141530  
146.18  4.7272500   1.30686  26040.734  1042141618  
146.59  4.7271600   1.30599  26118.464  1042141695  
146.99  4.7270720   1.30512  26205.394  1042141782  
147.39  4.7269800   1.30425  26286.524  1042141864  
147.80  4.7268890   1.30337  26374.664  1042141952  
148.20  4.7267970   1.30248  26457.034  1042142034  
148.61  4.7267100   1.30160  26543.894  1042142121  
149.02  4.7266080   1.30071  26625.174  1042142202  
149.42  4.7265170   1.29983  26713.224  1042142290  
149.82  4.7264250   1.29895  26793.264  1042142370  
150.22  4.7263290   1.29806  26881.374  1042142458  
150.62  4.7262450   1.29717  26962.634  1042142540  
151.02  4.7261490   1.29628  27049.654  1042142627  
151.42  4.7260580   1.29539  27129.724  1042142707  
151.84  4.7259620   1.29447  27217.844  1042142795  
152.24  4.7258860   1.29356  27301.394  1042142878  
152.65  4.7257740   1.29266  27386.044  1042142963  
153.05  4.7256840   1.29175  27468.444  1042143045  
153.46  4.7255840   1.29084  27555.414  1042143132  
153.86  4.7255010   1.28993  27635.494  1042143213  
154.26  4.7254050   1.28902  27718.934  1042143296  
154.67  4.7253120   1.28810  27801.414  1042143378  
155.07  4.7252170   1.28719  27881.564  1042143459  
155.47  4.7251230   1.28627  27967.334  1042143544  
155.88  4.7250260   1.28534  28046.274  1042143623  
156.28  4.7249290   1.28442  28130.934  1042143708  
156.68  4.7248400   1.28350  28206.344  1042143783  
157.09  4.7247410   1.28256  28293.284  1042143870  
157.50  4.7246460   1.28161  28371.034  1042143948  
157.91  4.7245490   1.28067  28457.934  1042144035  
158.31  4.7244550   1.27973  28534.594  1042144112  
158.71  4.7243550   1.27880  28619.204  1042144196  
159.11  4.7242660   1.27786  28694.724  1042144272  
159.52  4.7241680   1.27692  28777.054  1042144354  
159.92  4.7240750   1.27598  28857.114  1042144434  
160.32  4.7239770   1.27503  28937.174  1042144514  
160.73  4.7238770   1.27408  29019.594  1042144597  
161.13  4.7237870   1.27313  29093.964  1042144671  
161.53  4.7236920   1.27218  29176.314  1042144753  
161.94  4.7235930   1.27123  29249.474  1042144827  
162.34  4.7234910   1.27028  29329.614  1042144907  
162.74  4.7234040   1.26931  29404.044  1042144981  
163.16  4.7233010   1.26833  29481.864  1042145059  
163.56  4.7231990   1.26736  29560.794  1042145138  
163.96  4.7231060   1.26640  29631.684  1042145209  
164.37  4.7230100   1.26544  29709.444  1042145286  
164.77  4.7229130   1.26448  29781.414  1042145358  
165.18  4.7228110   1.26349  29855.744  1042145433  
165.58  4.7227130   1.26251  29931.304  1042145508  
165.99  4.7226080   1.26154  30001.134  1042145578  
166.39  4.7225100   1.26056  30076.664  1042145654  
166.79  4.7224170   1.25959  30145.284  1042145722  
167.20  4.7223150   1.25859  30217.344  1042145794  
167.61  4.7222140   1.25760  30291.804  1042145869  
168.02  4.7221050   1.25661  30361.584  1042145939  
168.42  4.7220140   1.25563  30433.674  1042146011  
168.82  4.7219410   1.25465  30503.424  1042146080  
