[FileHeader]
Idn=File from $Id$ - Gap calculated
Insert=A
Cell=C
p_Cell=300mB(RT)          
p_Heater=2E-2 mB (4K)       
T_Slope=0.000000
H_Field=0.000000
K0=6.048000
CalFile=NULL
SampleSensor=GaAs9356
HeaterSensor=9243
L0=1.740000
SampleID=YbGaGe E. Bauer AgSt=1.57mm erste Messung
;
StartTime=Wed May 26 18:22:53 2004
EndTime=Thu May 27 01:54:24 2004
NoofCols=5
DataPoints=470
ColID1=Gap [m]
ColID2=Usens [V]
ColID3=t [s]
ColID4=Date [s]
ColID5=Date [s]
#XMeas: CreationTime=Thu May 27 01:54:24 2004
@EOH
4.6183  0.00013882226195  5.11284  1.1160000  1085588783  
4.8220  0.00013882250308  5.06992  206.27600  1085588989  
5.0244  0.00013882271419  5.02771  264.01600  1085589046  
5.2250  0.00013882291948  4.98647  321.69600  1085589104  
5.4291  0.00013882312277  4.94529  379.37600  1085589162  
5.6317  0.00013882330504  4.90534  435.93600  1085589218  
5.8333  0.00013882345965  4.86650  491.23700  1085589274  
6.0369  0.00013882362952  4.82809  547.82600  1085589330  
6.2389  0.00013882378497  4.79062  601.97700  1085589384  
6.4426  0.00013882390399  4.75332  657.84600  1085589440  
6.6463  0.00013882403221  4.71640  713.09600  1085589495  
6.8496  0.00013882418429  4.67988  768.39700  1085589551  
7.0532  0.00013882430224  4.64364  823.82700  1085589606  
7.2556  0.00013882431339  4.60798  879.13800  1085589661  
7.4579  0.00013882453931  4.57272  934.44600  1085589717  
7.6599  0.00013882463706  4.53789  989.75600  1085589772  
7.8612  0.00013882464904  4.50358  1044.9960  1085589827  
8.0630  0.00013882482672  4.46954  1100.2970  1085589883  
8.2641  0.00013882491477  4.43596  1155.6060  1085589938  
8.4645  0.00013882500064  4.40280  1210.9070  1085589993  
8.6686   0.0001388250682  4.36933  1267.4670  1085590050  
8.8717  0.00013882512298  4.33631  1324.0260  1085590106  
9.0739  0.00013882520596  4.30372  1380.5770  1085590163  
9.2753  0.00013882527018  4.27153  1437.1360  1085590219  
9.4795  0.00013882531098  4.23915  1494.8770  1085590277  
9.6826  0.00013882539126  4.20720  1552.5670  1085590335  
9.8850   0.0001388254222  4.17562  1610.2460  1085590393  
10.089  0.00013882546015  4.14410  1669.1070  1085590451  
10.291  0.00013882552859  4.11296  1726.7870  1085590509  
10.492   0.0001388255497  4.08231  1784.4760  1085590567  
10.696  0.00013882557854  4.05143  1843.3370  1085590626  
10.899  0.00013882560947  4.02086  1902.1460  1085590684  
11.102   0.0001388256023  3.99056  1961.0160  1085590743  
11.305  0.00013882558923  3.96044  2019.8860  1085590802  
11.508  0.00013882561272  3.93063  2078.7560  1085590861  
11.710  0.00013882561572  3.90107  2137.6970  1085590920  
11.912  0.00013882561871  3.87168  2196.6160  1085590979  
12.113  0.00013882555783  3.84263  2255.4860  1085591038  
12.317  0.00013882555576  3.81345  2314.4160  1085591097  
12.519  0.00013882555573  3.78464  2373.2860  1085591156  
12.721  0.00013882553102  3.75606  2432.1470  1085591214  
12.922  0.00013882551479  3.72769  2491.0160  1085591273  
13.124  0.00013882551231  3.69942  2549.8970  1085591332  
13.326  0.00013882550171  3.67134  2608.8160  1085591391  
13.528  0.00013882546767  3.64346  2667.6860  1085591450  
13.730  0.00013882544975  3.61572  2726.5670  1085591509  
13.932  0.00013882541894  3.58811  2785.4260  1085591568  
14.135  0.00013882537195  3.56067  2844.3560  1085591627  
14.337  0.00013882533172  3.53339  2903.2260  1085591686  
14.539   0.0001388252767  3.50627  2962.0870  1085591744  
14.741  0.00013882523137  3.47931  3020.9770  1085591803  
14.944  0.00013882518617  3.45242  3079.8870  1085591862  
15.146  0.00013882511821  3.42575  3138.7570  1085591921  
15.349  0.00013882505507  3.39921  3197.6260  1085591980  
15.551  0.00013882499429  3.37286  3256.4960  1085592039  
15.755  0.00013882491126  3.34645  3315.3660  1085592098  
15.956  0.00013882481489  3.32065  3373.0460  1085592155  
16.159  0.00013882471997  3.29465  3431.9160  1085592214  
16.362  0.00013882464899  3.26889  3490.7860  1085592273  
16.564    0.000138824559  3.24331  3549.6470  1085592332  
16.766  0.00013882446574  3.21792  3608.5170  1085592391  
16.969  0.00013882435977  3.19265  3667.3860  1085592450  
17.171  0.00013882426138  3.16753  3726.2560  1085592509  
17.373  0.00013882415034  3.14258  3785.1260  1085592567  
17.576  0.00013882403792  3.11777  3843.9960  1085592626  
17.778  0.00013882390699  3.09311  3902.8670  1085592685  
17.981  0.00013882379343  3.06866  3961.7270  1085592744  
18.183  0.00013882370263  3.04438  4020.5960  1085592803  
18.385  0.00013882361628  3.02026  4079.4060  1085592862  
18.588  0.00013882351582  2.99627  4138.2760  1085592921  
18.790  0.00013882336671  2.97248  4197.1370  1085592979  
18.993  0.00013882326935  2.94881  4256.0760  1085593038  
19.195  0.00013882312619  2.92535  4314.9370  1085593097  
19.397  0.00013882301102  2.90205  4373.8070  1085593156  
19.600  0.00013882287759  2.87889  4432.6770  1085593215  
19.803  0.00013882273217  2.85587  4491.6170  1085593274  
20.005  0.00013882258873  2.83307  4550.5370  1085593333  
20.208  0.00013882245585  2.81045  4609.4060  1085593392  
20.410  0.00013882229913  2.78800  4668.2760  1085593451  
20.612  0.00013882211122  2.76574  4727.1460  1085593509  
20.815  0.00013882196088  2.74361  4786.0160  1085593568  
21.017  0.00013882181475  2.72166  4844.8860  1085593627  
21.219  0.00013882165532  2.69992  4903.7470  1085593686  
21.420  0.00013882149135  2.67840  4962.5560  1085593745  
21.622   0.0001388213159  2.65700  5021.4860  1085593804  
21.823  0.00013882118177  2.63576  5080.3560  1085593863  
22.024  0.00013882101996  2.61476  5139.2260  1085593922  
22.226  0.00013882082792  2.59388  5198.0960  1085593980  
22.427  0.00013882063348  2.57322  5256.9570  1085594039  
22.629  0.00013882043844  2.55270  5315.8270  1085594098  
22.831  0.00013882024842  2.53238  5374.6960  1085594157  
23.032  0.00013882000907  2.51223  5433.5660  1085594216  
23.234  0.00013881981252  2.49230  5492.4360  1085594275  
23.435  0.00013881957489  2.47256  5551.3060  1085594334  
23.637  0.00013881934326  2.45296  5610.2360  1085594393  
23.839  0.00013881912734  2.43359  5669.1060  1085594451  
24.041  0.00013881888394  2.41438  5727.9670  1085594510  
24.242  0.00013881864839  2.39538  5786.8370  1085594569  
24.444  0.00013881838952  2.37656  5845.7060  1085594628  
24.646  0.00013881814083  2.35791  5904.6370  1085594687  
24.847  0.00013881790316  2.33950  5963.5070  1085594746  
25.049  0.00013881762985  2.32124  6022.3760  1085594805  
25.251  0.00013881733031  2.30317  6081.2460  1085594864  
25.454  0.00013881704397  2.28523  6140.1160  1085594922  
25.657  0.00013881679806  2.26752  6198.9860  1085594981  
25.858  0.00013881649187  2.25005  6257.7860  1085595040  
26.060  0.00013881581522  2.23278  6316.6560  1085595099  
26.262  0.00013881548591  2.21570  6375.5260  1085595158  
26.464  0.00013881522532  2.19883  6434.3960  1085595217  
26.666  0.00013881484642  2.18216  6493.3260  1085595276  
26.868  0.00013881451088  2.16568  6552.1960  1085595335  
27.070  0.00013881419765  2.14939  6611.1260  1085595393  
27.273  0.00013881385844  2.13330  6669.9270  1085595452  
27.475  0.00013881349954  2.11738  6728.7360  1085595511  
27.679  0.00013881316501  2.10165  6787.6060  1085595570  
27.883  0.00013881277496  2.08609  6846.4760  1085595629  
28.087   0.0001388124375  2.07076  6905.3370  1085595688  
28.290  0.00013881196152  2.05572  6964.2070  1085595747  
28.492  0.00013881155816  2.04095  7023.0170  1085595805  
28.693  0.00013881117612  2.02649  7081.8860  1085595864  
28.894  0.00013881081137  2.01230  7140.7560  1085595923  
29.094  0.00013881049248  1.99834  7199.6170  1085595982  
29.298  0.00013881017876  1.98436  7257.4260  1085596040  
29.498   0.0001388098011  1.97084  7313.9170  1085596096  
29.701  0.00013880940581  1.95735  7370.4160  1085596153  
29.901   0.0001388089663  1.94428  7424.5360  1085596207  
30.102  0.00013880855862  1.93139  7477.4660  1085596260  
30.305  0.00013880816385  1.91861  7530.3960  1085596313  
30.508  0.00013880775631  1.90601  7584.5370  1085596367  
30.709  0.00013880732681  1.89374  7641.0760  1085596423  
30.910  0.00013880695313  1.88167  7702.3160  1085596485  
31.114  0.00013880653297  1.86973  7770.6860  1085596553  
31.316  0.00013880911237  1.85808  7844.9860  1085596627  
31.516  0.00013880868529  1.84676  7921.6660  1085596704  
31.718  0.00013880824663  1.83559  7995.9670  1085596778  
31.923  0.00013880768707  1.82448  8058.3360  1085596841  
32.132  0.00013880706899  1.81338  8094.6460  1085596877  
32.340  0.00013880657171  1.80256  8121.4560  1085596904  
32.547  0.00013880612181  1.79199  8150.6370  1085596933  
32.753  0.00013880565859  1.78175  8184.5760  1085596967  
32.956  0.00013880517666  1.77188  8225.6360  1085597008  
33.156  0.00013880467392  1.76232  8277.3760  1085597060  
33.357  0.00013880412509  1.75299  8344.6170  1085597127  
33.559  0.00013880363345  1.74378  8429.6070  1085597212  
33.760  0.00013880304025  1.73488  8518.1660  1085597301  
33.962  0.00013880244331  1.72609  8592.4660  1085597375  
34.166  0.00013880201728  1.71744  8652.5260  1085597435  
34.369  0.00013880144526  1.70904  8707.8270  1085597490  
34.571   0.0001388009553  1.70089  8763.1360  1085597545  
34.772  0.00013880047096  1.69298  8819.6270  1085597602  
34.973  0.00013880001238  1.68528  8877.3160  1085597660  
35.175  0.00013879950327  1.67772  8936.1770  1085597719  
35.375  0.00013879924669  1.67044  8993.8570  1085597776  
35.577  0.00013879865754  1.66328  9051.5460  1085597834  
35.778  0.00013879807394  1.65638  9108.0360  1085597890  
35.982  0.00013879744921  1.64954  9165.7160  1085597948  
36.182  0.00013879689778  1.64302  9222.2070  1085598005  
36.386  0.00013879605501  1.63656  9279.8870  1085598062  
36.590  0.00013879537673  1.63027  9337.5760  1085598120  
36.793  0.00013879876504  1.62416  9395.2560  1085598178  
36.994  0.00013879817027  1.61832  9451.8070  1085598234  
37.194  0.00013879763792  1.61266  9508.2370  1085598291  
37.395  0.00013879698395  1.60716  9564.7360  1085598347  
37.598   0.0001387965281  1.60178  9621.2270  1085598404  
37.800  0.00013879580704  1.59657  9677.7260  1085598460  
38.000  0.00013879501813  1.59157  9733.0270  1085598515  
38.201  0.00013879425229  1.58670  9788.2760  1085598571  
38.402  0.00013879347573  1.58197  9843.5770  1085598626  
38.607  0.00013879250178  1.57730  9900.0760  1085598682  
38.812  0.00013879177833  1.57278  9956.5660  1085598739  
39.013  0.00013879100297  1.56847  10011.936  1085598794  
39.215   0.0001387902055  1.56431  10067.246  1085598850  
39.417  0.00013878938657  1.56027  10122.557  1085598905  
39.620  0.00013878861746  1.55635  10177.857  1085598960  
39.823   0.0001387878282  1.55255  10233.226  1085599016  
40.024  0.00013878703144  1.54891  10287.347  1085599070  
40.225  0.00013878623534  1.54540  10341.466  1085599124  
40.426  0.00013878539632  1.54198  10395.577  1085599178  
40.629  0.00013878446856  1.53866  10449.697  1085599232  
40.833  0.00013878361141  1.53543  10503.817  1085599286  
41.034  0.00013878276972  1.53236  10556.747  1085599339  
41.237  0.00013878187215  1.52936  10609.686  1085599392  
41.441   0.0001387809861  1.52646  10662.556  1085599445  
41.643  0.00013878023814  1.52368  10714.296  1085599497  
41.845   0.0001387794053  1.52100  10766.037  1085599548  
42.046   0.0001387785102  1.51843  10817.846  1085599600  
42.250  0.00013877770369  1.51589  10870.777  1085599653  
42.452  0.00013877679688  1.51347  10922.586  1085599705  
42.653  0.00013877602264  1.51115  10974.327  1085599757  
42.855  0.00013877522855  1.50889  11027.266  1085599810  
43.057  0.00013877438603  1.50672  11081.377  1085599864  
43.257  0.00013877355923  1.50464  11135.497  1085599918  
43.461   0.0001387726521  1.50260  11190.867  1085599973  
43.664  0.00013877176825  1.50063  11246.176  1085600029  
43.865  0.00013877090696  1.49876  11300.417  1085600083  
44.068  0.00013877000987  1.49693  11354.536  1085600137  
44.269  0.00013876907893  1.49518  11407.467  1085600190  
44.472  0.00013876818621  1.49347  11461.587  1085600244  
44.672  0.00013876626824  1.49184  11514.517  1085600297  
44.876  0.00013876531539  1.49024  11568.637  1085600351  
45.077  0.00013876447916  1.48872  11622.696  1085600405  
45.279  0.00013876352574  1.48725  11676.816  1085600459  
45.480  0.00013876256499  1.48583  11731.186  1085600514  
45.683  0.00013876157259  1.48445  11785.306  1085600568  
45.885  0.00013876056889  1.48312  11838.236  1085600621  
46.087   0.0001387595366  1.48184  11889.977  1085600672  
46.287   0.0001387585258  1.48061  11939.347  1085600722  
46.489  0.00013875751903  1.47941  11986.346  1085600769  
46.690  0.00013875644153  1.47825  12034.526  1085600817  
46.893  0.00013875541546  1.47712  12081.517  1085600864  
47.096   0.0001387543438  1.47603  12129.706  1085600912  
47.302   0.0001387532961  1.47496  12177.886  1085600960  
47.502  0.00013875216761  1.47395  12228.446  1085601011  
47.705  0.00013875112254  1.47296  12278.997  1085601061  
47.909  0.00013875011279  1.47200  12330.746  1085601113  
48.110  0.00013874889818  1.47108  12384.866  1085601167  
48.310  0.00013874776344  1.47019  12440.236  1085601223  
48.512  0.00013874668023  1.46932  12497.916  1085601280  
48.716     0.00013874554  1.46847  12554.406  1085601337  
48.918   0.0001387443849  1.46765  12612.086  1085601394  
49.121  0.00013874317063  1.46685  12672.146  1085601454  
49.325  0.00013874200379  1.46607  12729.886  1085601512  
49.527  0.00013874077961  1.46532  12788.756  1085601571  
49.735  0.00013873958388  1.46457  12846.497  1085601629  
49.940  0.00013873835718  1.46385  12905.366  1085601688  
50.143  0.00013873709215  1.46316  12964.236  1085601747  
50.347  0.00013873588493  1.46248  13024.307  1085601807  
50.548  0.00013873464747  1.46183  13084.346  1085601867  
50.757  0.00013873339543  1.46117  13146.777  1085601929  
50.959  0.00013873216374  1.46055  13210.377  1085601993  
51.162  0.00013873101298  1.45994  13275.207  1085602058  
51.367   0.0001387297386  1.45934  13342.386  1085602125  
51.570  0.00013872851895  1.45876  13410.747  1085602193  
51.770  0.00013872727456  1.45820  13476.746  1085602259  
51.975  0.00013872604219  1.45764  13545.107  1085602327  
52.178  0.00013872474405  1.45710  13617.226  1085602400  
52.380  0.00013872360171  1.45657  13690.346  1085602473  
52.584  0.00013872228293  1.45605  13767.026  1085602549  
52.787  0.00013872078492  1.45554  13837.766  1085602620  
52.991  0.00013871948316  1.45504  13914.446  1085602697  
53.195  0.00013871819527  1.45455  13989.936  1085602772  
53.399  0.00013871694615  1.45407  14060.677  1085602843  
53.602   0.0001387156568  1.45360  14132.606  1085602915  
53.805  0.00013871431552  1.45314  14203.347  1085602986  
54.007  0.00013871314253  1.45269  14268.217  1085603051  
54.208  0.00013871181288  1.45225  14330.647  1085603113  
54.409  0.00013871047255  1.45182  14393.077  1085603175  
54.613   0.0001387091762  1.45139  14450.757  1085603233  
54.815  0.00013870782318  1.45097  14507.256  1085603290  
55.016  0.00013870652497  1.45056  14557.817  1085603340  
55.220  0.00013870511123  1.45015  14607.186  1085603390  
55.422  0.00013870372509  1.44975  14654.176  1085603437  
55.633  0.00013870231992  1.44934  14698.796  1085603481  
55.836  0.00013870099183  1.44895  14739.856  1085603522  
56.042  0.00013869956743  1.44856  14780.916  1085603563  
56.245  0.00013869825329  1.44818  14819.596  1085603602  
56.446  0.00013869692811  1.44781  14855.966  1085603638  
56.649   0.0001386955735  1.44744  14894.836  1085603677  
56.855  0.00013869413787  1.44707  14934.767  1085603717  
57.058  0.00013869271437  1.44671  14973.456  1085603756  
57.269  0.00013869149837  1.44634  15009.766  1085603792  
57.471  0.00013869006947  1.44599  15048.506  1085603831  
57.675  0.00013868869084  1.44564  15088.377  1085603871  
57.876  0.00013868736878  1.44530  15125.876  1085603908  
58.091  0.00013868599778  1.44494  15165.746  1085603948  
58.309  0.00013868443557  1.44458  15211.556  1085603994  
58.510  0.00013868298403  1.44425  15254.986  1085604037  
58.720  0.00013868160093  1.44391  15298.416  1085604081  
58.926  0.00013868024039  1.44358  15341.847  1085604124  
59.127   0.0001386788366  1.44326  15387.656  1085604170  
59.331  0.00013867751723  1.44294  15432.227  1085604215  
59.536  0.00013867611626  1.44262  15480.396  1085604263  
59.737  0.00013867468884  1.44231  15529.837  1085604312  
59.939  0.00013867333992  1.44200  15579.197  1085604362  
60.143   0.0001386717453  1.44169  15632.136  1085604414  
60.349  0.00013867047561  1.44138  15682.997  1085604465  
60.550  0.00013866907561  1.44108  15739.496  1085604522  
60.752  0.00013866777133  1.44078  15793.676  1085604576  
60.955  0.00013866636997  1.44048  15851.356  1085604634  
61.161   0.0001386649773  1.44018  15911.416  1085604694  
61.367  0.00013866364098  1.43988  15970.286  1085604753  
61.568  0.00013866221088  1.43959  16033.897  1085604816  
61.770  0.00013866083554  1.43930  16096.327  1085604879  
61.974  0.00013865948662  1.43901  16158.766  1085604941  
62.179  0.00013865796829  1.43872  16230.687  1085605013  
62.385   0.0001386565931  1.43843  16297.867  1085605080  
62.592  0.00013865528491  1.43814  16362.676  1085605145  
62.793  0.00013865393332  1.43786  16428.667  1085605211  
62.995  0.00013865250399  1.43758  16499.416  1085605282  
63.198  0.00013865114957  1.43730  16570.156  1085605353  
63.417  0.00013864962379  1.43700  16644.456  1085605427  
63.622  0.00013864823345  1.43672  16713.947  1085605496  
63.828  0.00013864672161  1.43644  16785.946  1085605568  
64.035  0.00013864534234  1.43616  16853.126  1085605635  
64.235  0.00013864395292  1.43589  16919.116  1085605701  
64.437  0.00013864253441  1.43562  16985.106  1085605767  
64.639  0.00013864112424  1.43535  17048.737  1085605831  
64.841  0.00013863964219  1.43508  17113.536  1085605896  
65.045   0.0001386382387  1.43481  17174.776  1085605957  
65.257  0.00013863683664  1.43453  17234.827  1085606017  
65.470  0.00013863536551  1.43425  17296.076  1085606078  
65.683  0.00013863385833  1.43397  17356.196  1085606139  
65.897  0.00013863234242  1.43369  17416.247  1085606199  
66.104   0.0001386309285  1.43342  17471.556  1085606254  
66.305  0.00013862951744  1.43316  17525.676  1085606308  
66.505  0.00013862817341  1.43290  17578.606  1085606361  
66.706  0.00013862669227  1.43264  17632.726  1085606415  
66.916  0.00013862535995  1.43237  17683.286  1085606466  
67.118  0.00013862387767  1.43211  17736.216  1085606519  
67.321  0.00013862241091  1.43185  17790.336  1085606573  
67.540  0.00013862097402  1.43157  17844.456  1085606627  
67.744  0.00013861951149  1.43131  17898.577  1085606681  
67.948  0.00013861816025  1.43105  17947.937  1085606730  
68.153  0.00013861682964  1.43079  17998.497  1085606781  
68.358  0.00013861534568  1.43053  18052.616  1085606835  
68.564  0.00013861398181  1.43027  18103.176  1085606886  
68.778  0.00013861253198  1.43000  18158.477  1085606941  
68.992  0.00013861107365  1.42973  18212.597  1085606995  
69.207   0.0001386096323  1.42946  18266.716  1085607049  
69.415  0.00013860807069  1.42920  18324.397  1085607107  
69.622  0.00013860675925  1.42894  18374.896  1085607157  
69.823  0.00013860535567  1.42869  18427.826  1085607210  
70.023  0.00013860404275  1.42844  18477.196  1085607260  
70.224  0.00013860269509  1.42819  18528.937  1085607311  
70.424  0.00013860129236  1.42794  18581.867  1085607364  
70.626  0.00013859994146  1.42769  18633.616  1085607416  
70.827  0.00013859832249  1.42744  18690.107  1085607472  
71.029  0.00013859708623  1.42719  18738.567  1085607521  
71.239  0.00013859568776  1.42693  18792.847  1085607575  
71.441  0.00013859423755  1.42668  18848.096  1085607630  
