[FileHeader]
Idn=THEX 1.0 for LINUX
Insert=A
Cell=C
p_Cell=300mB(RT)          
p_Heater=2E-2 mB (4K)       
T_Slope=0.000000
H_Field=0.000000
K0=6.048000
CalFile=NULL
SampleSensor=GaAs9356
HeaterSensor=9243
L0=1.740000
SampleID=YbGaGe E. Bauer AgSt=1.57mm erste Messung
;
StartTime=Wed May 26 18:22:53 2004
EndTime=Thu May 27 01:54:24 2004
NoofCols=5
DataPoints=470
ColID1=T [K]
ColID2=C [pF]
ColID3=Usens [V]
ColID4=t [s]
ColID5=Date [s]
#XMeas: CreationTime=Thu May 27 01:54:24 2004
@EOH
      4.6183       6.3767046       5.11284       1.1160000  1085588783
      4.8220       6.3766937       5.06992       206.27600  1085588989
      5.0244       6.3766842       5.02771       264.01600  1085589046
      5.2250       6.3766750       4.98647       321.69600  1085589104
      5.4291       6.3766659       4.94529       379.37600  1085589162
      5.6317       6.3766578       4.90534       435.93600  1085589218
      5.8333       6.3766510       4.86650       491.23700  1085589274
      6.0369       6.3766435       4.82809       547.82600  1085589330
      6.2389       6.3766367       4.79062       601.97700  1085589384
      6.4426       6.3766316       4.75332       657.84600  1085589440
      6.6463       6.3766261       4.71640       713.09600  1085589495
      6.8496       6.3766195       4.67988       768.39700  1085589551
      7.0532       6.3766145       4.64364       823.82700  1085589606
      7.2556       6.3766145       4.60798       879.13800  1085589661
      7.4579       6.3766045       4.57272       934.44600  1085589717
      7.6599       6.3766005       4.53789       989.75600  1085589772
      7.8612       6.3766005       4.50358       1044.9960  1085589827
      8.0630       6.3765928       4.46954       1100.2970  1085589883
      8.2641       6.3765893       4.43596       1155.6060  1085589938
      8.4645       6.3765859       4.40280       1210.9070  1085589993
      8.6686       6.3765834       4.36933       1267.4670  1085590050
      8.8717       6.3765815       4.33631       1324.0260  1085590106
      9.0739       6.3765783       4.30372       1380.5770  1085590163
      9.2753       6.3765760       4.27153       1437.1360  1085590219
      9.4795       6.3765748       4.23915       1494.8770  1085590277
      9.6826       6.3765718       4.20720       1552.5670  1085590335
      9.8850       6.3765711       4.17562       1610.2460  1085590393
      10.089       6.3765701       4.14410       1669.1070  1085590451
      10.291       6.3765677       4.11296       1726.7870  1085590509
      10.492       6.3765675       4.08231       1784.4760  1085590567
      10.696       6.3765670       4.05143       1843.3370  1085590626
      10.899       6.3765664       4.02086       1902.1460  1085590684
      11.102       6.3765676       3.99056       1961.0160  1085590743
      11.305       6.3765691       3.96044       2019.8860  1085590802
      11.508       6.3765689       3.93063       2078.7560  1085590861
      11.710       6.3765697       3.90107       2137.6970  1085590920
      11.912       6.3765705       3.87168       2196.6160  1085590979
      12.113       6.3765743       3.84263       2255.4860  1085591038
      12.317       6.3765754       3.81345       2314.4160  1085591097
      12.519       6.3765764       3.78464       2373.2860  1085591156
      12.721       6.3765786       3.75606       2432.1470  1085591214
      12.922       6.3765804       3.72769       2491.0160  1085591273
      13.124       6.3765816       3.69942       2549.8970  1085591332
      13.326       6.3765832       3.67134       2608.8160  1085591391
      13.528       6.3765859       3.64346       2667.6860  1085591450
      13.730       6.3765879       3.61572       2726.5670  1085591509
      13.932       6.3765905       3.58811       2785.4260  1085591568
      14.135       6.3765939       3.56067       2844.3560  1085591627
      14.337       6.3765970       3.53339       2903.2260  1085591686
      14.539       6.3766008       3.50627       2962.0870  1085591744
      14.741       6.3766042       3.47931       3020.9770  1085591803
      14.944       6.3766076       3.45242       3079.8870  1085591862
      15.146       6.3766121       3.42575       3138.7570  1085591921
      15.349       6.3766164       3.39921       3197.6260  1085591980
      15.551       6.3766206       3.37286       3256.4960  1085592039
      15.755       6.3766259       3.34645       3315.3660  1085592098
      15.956       6.3766318       3.32065       3373.0460  1085592155
      16.159       6.3766377       3.29465       3431.9160  1085592214
      16.362       6.3766425       3.26889       3490.7860  1085592273
      16.564       6.3766482       3.24331       3549.6470  1085592332
      16.766       6.3766541       3.21792       3608.5170  1085592391
      16.969       6.3766606       3.19265       3667.3860  1085592450
      17.171       6.3766668       3.16753       3726.2560  1085592509
      17.373       6.3766736       3.14258       3785.1260  1085592567
      17.576       6.3766805       3.11777       3843.9960  1085592626
      17.778       6.3766883       3.09311       3902.8670  1085592685
      17.981       6.3766953       3.06866       3961.7270  1085592744
      18.183       6.3767013       3.04438       4020.5960  1085592803
      18.385       6.3767071       3.02026       4079.4060  1085592862
      18.588       6.3767136       2.99627       4138.2760  1085592921
      18.790       6.3767224       2.97248       4197.1370  1085592979
      18.993       6.3767288       2.94881       4256.0760  1085593038
      19.195       6.3767374       2.92535       4314.9370  1085593097
      19.397       6.3767447       2.90205       4373.8070  1085593156
      19.600       6.3767529       2.87889       4432.6770  1085593215
      19.803       6.3767617       2.85587       4491.6170  1085593274
      20.005       6.3767704       2.83307       4550.5370  1085593333
      20.208       6.3767787       2.81045       4609.4060  1085593392
      20.410       6.3767881       2.78800       4668.2760  1085593451
      20.612       6.3767990       2.76574       4727.1460  1085593509
      20.815       6.3768082       2.74361       4786.0160  1085593568
      21.017       6.3768172       2.72166       4844.8860  1085593627
      21.219       6.3768269       2.69992       4903.7470  1085593686
      21.420       6.3768368       2.67840       4962.5560  1085593745
      21.622       6.3768473       2.65700       5021.4860  1085593804
      21.823       6.3768559       2.63576       5080.3560  1085593863
      22.024       6.3768658       2.61476       5139.2260  1085593922
      22.226       6.3768772       2.59388       5198.0960  1085593980
      22.427       6.3768887       2.57322       5256.9570  1085594039
      22.629       6.3769003       2.55270       5315.8270  1085594098
      22.831       6.3769117       2.53238       5374.6960  1085594157
      23.032       6.3769254       2.51223       5433.5660  1085594216
      23.234       6.3769372       2.49230       5492.4360  1085594275
      23.435       6.3769509       2.47256       5551.3060  1085594334
      23.637       6.3769644       2.45296       5610.2360  1085594393
      23.839       6.3769772       2.43359       5669.1060  1085594451
      24.041       6.3769913       2.41438       5727.9670  1085594510
      24.242       6.3770051       2.39538       5786.8370  1085594569
      24.444       6.3770200       2.37656       5845.7060  1085594628
      24.646       6.3770345       2.35791       5904.6370  1085594687
      24.847       6.3770485       2.33950       5963.5070  1085594746
      25.049       6.3770642       2.32124       6022.3760  1085594805
      25.251       6.3770812       2.30317       6081.2460  1085594864
      25.454       6.3770976       2.28523       6140.1160  1085594922
      25.657       6.3771122       2.26752       6198.9860  1085594981
      25.858       6.3771296       2.25005       6257.7860  1085595040
      26.060       6.3771643       2.23278       6316.6560  1085595099
      26.262       6.3771829       2.21570       6375.5260  1085595158
      26.464       6.3771983       2.19883       6434.3960  1085595217
      26.666       6.3772193       2.18216       6493.3260  1085595276
      26.868       6.3772383       2.16568       6552.1960  1085595335
      27.070       6.3772563       2.14939       6611.1260  1085595393
      27.273       6.3772756       2.13330       6669.9270  1085595452
      27.475       6.3772958       2.11738       6728.7360  1085595511
      27.679       6.3773150       2.10165       6787.6060  1085595570
      27.883       6.3773368       2.08609       6846.4760  1085595629
      28.087       6.3773562       2.07076       6905.3370  1085595688
      28.290       6.3773821       2.05572       6964.2070  1085595747
      28.492       6.3774046       2.04095       7023.0170  1085595805
      28.693       6.3774262       2.02649       7081.8860  1085595864
      28.894       6.3774470       2.01230       7140.7560  1085595923
      29.094       6.3774657       1.99834       7199.6170  1085595982
      29.298       6.3774843       1.98436       7257.4260  1085596040
      29.498       6.3775058       1.97084       7313.9170  1085596096
      29.701       6.3775283       1.95735       7370.4160  1085596153
      29.901       6.3775528       1.94428       7424.5360  1085596207
      30.102       6.3775759       1.93139       7477.4660  1085596260
      30.305       6.3775985       1.91861       7530.3960  1085596313
      30.508       6.3776217       1.90601       7584.5370  1085596367
      30.709       6.3776460       1.89374       7641.0760  1085596423
      30.910       6.3776677       1.88167       7702.3160  1085596485
      31.114       6.3776917       1.86973       7770.6860  1085596553
      31.316       6.3775760       1.85808       7844.9860  1085596627
      31.516       6.3776003       1.84676       7921.6660  1085596704
      31.718       6.3776253       1.83559       7995.9670  1085596778
      31.923       6.3776560       1.82448       8058.3360  1085596841
      32.132       6.3776896       1.81338       8094.6460  1085596877
      32.340       6.3777176       1.80256       8121.4560  1085596904
      32.547       6.3777434       1.79199       8150.6370  1085596933
      32.753       6.3777699       1.78175       8184.5760  1085596967
      32.956       6.3777972       1.77188       8225.6360  1085597008
      33.156       6.3778255       1.76232       8277.3760  1085597060
      33.357       6.3778560       1.75299       8344.6170  1085597127
      33.559       6.3778839       1.74378       8429.6070  1085597212
      33.760       6.3779166       1.73488       8518.1660  1085597301
      33.962       6.3779495       1.72609       8592.4660  1085597375
      34.166       6.3779746       1.71744       8652.5260  1085597435
      34.369       6.3780065       1.70904       8707.8270  1085597490
      34.571       6.3780346       1.70089       8763.1360  1085597545
      34.772       6.3780625       1.69298       8819.6270  1085597602
      34.973       6.3780892       1.68528       8877.3160  1085597660
      35.175       6.3781184       1.67772       8936.1770  1085597719
      35.375       6.3781358       1.67044       8993.8570  1085597776
      35.577       6.3781688       1.66328       9051.5460  1085597834
      35.778       6.3782016       1.65638       9108.0360  1085597890
      35.982       6.3782364       1.64954       9165.7160  1085597948
      36.182       6.3782678       1.64302       9222.2070  1085598005
      36.386       6.3783129       1.63656       9279.8870  1085598062
      36.590       6.3783504       1.63027       9337.5760  1085598120
      36.793       6.3781985       1.62416       9395.2560  1085598178
      36.994       6.3782321       1.61832       9451.8070  1085598234
      37.194       6.3782629       1.61266       9508.2370  1085598291
      37.395       6.3782994       1.60716       9564.7360  1085598347
      37.598       6.3783268       1.60178       9621.2270  1085598404
      37.800       6.3783666       1.59657       9677.7260  1085598460
      38.000       6.3784095       1.59157       9733.0270  1085598515
      38.201       6.3784515       1.58670       9788.2760  1085598571
      38.402       6.3784940       1.58197       9843.5770  1085598626
      38.607       6.3785459       1.57730       9900.0760  1085598682
      38.812       6.3785862       1.57278       9956.5660  1085598739
      39.013       6.3786288       1.56847       10011.936  1085598794
      39.215       6.3786726       1.56431       10067.246  1085598850
      39.417       6.3787174       1.56027       10122.557  1085598905
      39.620       6.3787600       1.55635       10177.857  1085598960
      39.823       6.3788036       1.55255       10233.226  1085599016
      40.024       6.3788475       1.54891       10287.347  1085599070
      40.225       6.3788915       1.54540       10341.466  1085599124
      40.426       6.3789375       1.54198       10395.577  1085599178
      40.629       6.3789878       1.53866       10449.697  1085599232
      40.833       6.3790349       1.53543       10503.817  1085599286
      41.034       6.3790812       1.53236       10556.747  1085599339
      41.237       6.3791303       1.52936       10609.686  1085599392
      41.441       6.3791789       1.52646       10662.556  1085599445
      41.643       6.3792211       1.52368       10714.296  1085599497
      41.845       6.3792673       1.52100       10766.037  1085599548
      42.046       6.3793164       1.51843       10817.846  1085599600
      42.250       6.3793616       1.51589       10870.777  1085599653
      42.452       6.3794114       1.51347       10922.586  1085599705
      42.653       6.3794551       1.51115       10974.327  1085599757
      42.855       6.3794998       1.50889       11027.266  1085599810
      43.057       6.3795468       1.50672       11081.377  1085599864
      43.257       6.3795931       1.50464       11135.497  1085599918
      43.461       6.3796433       1.50260       11190.867  1085599973
      43.664       6.3796925       1.50063       11246.176  1085600029
      43.865       6.3797406       1.49876       11300.417  1085600083
      44.068       6.3797905       1.49693       11354.536  1085600137
      44.269       6.3798420       1.49518       11407.467  1085600190
      44.472       6.3798918       1.49347       11461.587  1085600244
      44.672       6.3799894       1.49184       11514.517  1085600297
      44.876       6.3800422       1.49024       11568.637  1085600351
      45.077       6.3800895       1.48872       11622.696  1085600405
      45.279       6.3801424       1.48725       11676.816  1085600459
      45.480       6.3801956       1.48583       11731.186  1085600514
      45.683       6.3802505       1.48445       11785.306  1085600568
      45.885       6.3803059       1.48312       11838.236  1085600621
      46.087       6.3803627       1.48184       11889.977  1085600672
      46.287       6.3804185       1.48061       11939.347  1085600722
      46.489       6.3804742       1.47941       11986.346  1085600769
      46.690       6.3805333       1.47825       12034.526  1085600817
      46.893       6.3805901       1.47712       12081.517  1085600864
      47.096       6.3806491       1.47603       12129.706  1085600912
      47.302       6.3807072       1.47496       12177.886  1085600960
      47.502       6.3807688       1.47395       12228.446  1085601011
      47.705       6.3808268       1.47296       12278.997  1085601061
      47.909       6.3808832       1.47200       12330.746  1085601113
      48.110       6.3809491       1.47108       12384.866  1085601167
      48.310       6.3810113       1.47019       12440.236  1085601223
      48.512       6.3810712       1.46932       12497.916  1085601280
      48.716       6.3811340       1.46847       12554.406  1085601337
      48.918       6.3811974       1.46765       12612.086  1085601394
      49.121       6.3812637       1.46685       12672.146  1085601454
      49.325       6.3813279       1.46607       12729.886  1085601512
      49.527       6.3813947       1.46532       12788.756  1085601571
      49.735       6.3814606       1.46457       12846.497  1085601629
      49.940       6.3815278       1.46385       12905.366  1085601688
      50.143       6.3815968       1.46316       12964.236  1085601747
      50.347       6.3816632       1.46248       13024.307  1085601807
      50.548       6.3817309       1.46183       13084.346  1085601867
      50.757       6.3817998       1.46117       13146.777  1085601929
      50.959       6.3818674       1.46055       13210.377  1085601993
      51.162       6.3819314       1.45994       13275.207  1085602058
      51.367       6.3820013       1.45934       13342.386  1085602125
      51.570       6.3820686       1.45876       13410.747  1085602193
      51.770       6.3821370       1.45820       13476.746  1085602259
      51.975       6.3822051       1.45764       13545.107  1085602327
      52.178       6.3822763       1.45710       13617.226  1085602400
      52.380       6.3823402       1.45657       13690.346  1085602473
      52.584       6.3824125       1.45605       13767.026  1085602549
      52.787       6.3824932       1.45554       13837.766  1085602620
      52.991       6.3825648       1.45504       13914.446  1085602697
      53.195       6.3826359       1.45455       13989.936  1085602772
      53.399       6.3827052       1.45407       14060.677  1085602843
      53.602       6.3827764       1.45360       14132.606  1085602915
      53.805       6.3828501       1.45314       14203.347  1085602986
      54.007       6.3829159       1.45269       14268.217  1085603051
      54.208       6.3829891       1.45225       14330.647  1085603113
      54.409       6.3830628       1.45182       14393.077  1085603175
      54.613       6.3831347       1.45139       14450.757  1085603233
      54.815       6.3832092       1.45097       14507.256  1085603290
      55.016       6.3832811       1.45056       14557.817  1085603340
      55.220       6.3833587       1.45015       14607.186  1085603390
      55.422       6.3834349       1.44975       14654.176  1085603437
      55.633       6.3835126       1.44934       14698.796  1085603481
      55.836       6.3835863       1.44895       14739.856  1085603522
      56.042       6.3836647       1.44856       14780.916  1085603563
      56.245       6.3837379       1.44818       14819.596  1085603602
      56.446       6.3838115       1.44781       14855.966  1085603638
      56.649       6.3838867       1.44744       14894.836  1085603677
      56.855       6.3839659       1.44707       14934.767  1085603717
      57.058       6.3840444       1.44671       14973.456  1085603756
      57.269       6.3841138       1.44634       15009.766  1085603792
      57.471       6.3841926       1.44599       15048.506  1085603831
      57.675       6.3842693       1.44564       15088.377  1085603871
      57.876       6.3843432       1.44530       15125.876  1085603908
      58.091       6.3844203       1.44494       15165.746  1085603948
      58.309       6.3845066       1.44458       15211.556  1085603994
      58.510       6.3845867       1.44425       15254.986  1085604037
      58.720       6.3846643       1.44391       15298.416  1085604081
      58.926       6.3847406       1.44358       15341.847  1085604124
      59.127       6.3848187       1.44326       15387.656  1085604170
      59.331       6.3848931       1.44294       15432.227  1085604215
      59.536       6.3849714       1.44262       15480.396  1085604263
      59.737       6.3850508       1.44231       15529.837  1085604312
      59.939       6.3851266       1.44200       15579.197  1085604362
