[FileHeader]
Idn=File from XAusw for LINUX V 1.1: CreationTime=Wed Jun  2 17:04:37 2004
Insert=A
Cell=C
p_Cell=300mB(RT)          
p_Heater=2E-2 mB (4K)       
T_Slope=0.000000
H_Field=0.000000
K0=6.048000
CalFile=NULL
SampleSensor=GaAs9356
HeaterSensor=9243
L0=1.740000
SampleID=YbGaGe E. Bauer AgSt=1.57mm erste Messung
;
StartTime=Wed May 26 18:22:53 2004
EndTime=Thu May 27 01:54:24 2004
ColID1=T [K]
ColID2=Gap [m]
ColID3=Usens [V]
ColID4=t [s]
ColID5=Date [s]
NoofCols=5
DataPoints=470
#XMeas: CreationTime=Thu May 27 01:54:24 2004
@EOH
         4.6183   -0.00029764126          5.11284            1.116    1.0855888e+09  
          4.822   -0.00029745286          5.06992          206.276     1.085589e+09  
         5.0244   -0.00029728135          5.02771          264.016     1.085589e+09  
          5.225   -0.00029710531          4.98647          321.696    1.0855891e+09  
         5.4291   -0.00029693406          4.94529          379.376    1.0855892e+09  
         5.6317   -0.00029677092          4.90534          435.936    1.0855892e+09  
         5.8333   -0.00029661754           4.8665          491.237    1.0855893e+09  
         6.0369   -0.00029645672          4.82809          547.826    1.0855893e+09  
         6.2389   -0.00029630302          4.79062          601.977    1.0855894e+09  
         6.4426   -0.00029616599          4.75332          657.846    1.0855894e+09  
         6.6463   -0.00029601879           4.7164          713.096    1.0855895e+09  
         6.8496   -0.00029585852          4.67988          768.397    1.0855896e+09  
         7.0532   -0.00029571373          4.64364          823.827    1.0855896e+09  
         7.2556   -0.00029562798          4.60798          879.138    1.0855897e+09  
         7.4579   -0.00029541583          4.57272          934.446    1.0855897e+09  
         7.6599   -0.00029527343          4.53789          989.756    1.0855898e+09  
         7.8612   -0.00029518172          4.50358         1044.996    1.0855898e+09  
          8.063   -0.00029499003          4.46954         1100.297    1.0855899e+09  
         8.2641   -0.00029485161          4.43596         1155.606    1.0855899e+09  
         8.4645   -0.00029470776           4.4028         1210.907      1.08559e+09  
         8.6686   -0.00029456804          4.36933         1267.467      1.08559e+09  
         8.8717   -0.00029443912          4.33631         1324.026    1.0855901e+09  
         9.0739   -0.00029429084          4.30372         1380.577    1.0855902e+09  
         9.2753   -0.00029414431          4.27153         1437.136    1.0855902e+09  
         9.4795   -0.00029401354          4.23915         1494.877    1.0855903e+09  
         9.6826   -0.00029385387           4.2072         1552.567    1.0855903e+09  
          9.885    -0.0002937226          4.17562         1610.246    1.0855904e+09  
         10.089   -0.00029358142           4.1441         1669.107    1.0855905e+09  
         10.291   -0.00029341999          4.11296         1726.787    1.0855905e+09  
         10.492    -0.0002932879          4.08231         1784.476    1.0855906e+09  
         10.696   -0.00029314087          4.05143         1843.337    1.0855906e+09  
         10.899   -0.00029299418          4.02086         1902.146    1.0855907e+09  
         11.102   -0.00029286651          3.99056         1961.016    1.0855907e+09  
         11.305   -0.00029273492          3.96044         2019.886    1.0855908e+09  
         11.508   -0.00029258578          3.93063         2078.756    1.0855909e+09  
          11.71   -0.00029244104          3.90107         2137.697    1.0855909e+09  
         11.912   -0.00029229055          3.87168         2196.616     1.085591e+09  
         12.113   -0.00029217635          3.84263         2255.486     1.085591e+09  
         12.317   -0.00029202752          3.81345         2314.416    1.0855911e+09  
         12.519   -0.00029187365          3.78464         2373.286    1.0855912e+09  
         12.721   -0.00029172351          3.75606         2432.147    1.0855912e+09  
         12.922   -0.00029157416          3.72769         2491.016    1.0855913e+09  
         13.124    -0.0002914071          3.69942         2549.897    1.0855913e+09  
         13.326   -0.00029124238          3.67134         2608.816    1.0855914e+09  
         13.528   -0.00029108789          3.64346         2667.686    1.0855914e+09  
          13.73   -0.00029091982          3.61572         2726.567    1.0855915e+09  
         13.932   -0.00029075749          3.58811         2785.426    1.0855916e+09  
         14.135   -0.00029059951          3.56067         2844.356    1.0855916e+09  
         14.337   -0.00029043357          3.53339         2903.226    1.0855917e+09  
         14.539   -0.00029027151          3.50627         2962.087    1.0855917e+09  
         14.741   -0.00029010168          3.47931         3020.977    1.0855918e+09  
         14.944   -0.00028993086          3.45242         3079.887    1.0855919e+09  
         15.146   -0.00028975961          3.42575         3138.757    1.0855919e+09  
         15.349   -0.00028959032          3.39921         3197.626     1.085592e+09  
         15.551   -0.00028941374          3.37286         3256.496     1.085592e+09  
         15.755   -0.00028923886          3.34645         3315.366    1.0855921e+09  
         15.956   -0.00028907872          3.32065         3373.046    1.0855922e+09  
         16.159   -0.00028890242          3.29465         3431.916    1.0855922e+09  
         16.362   -0.00028871234          3.26889         3490.786    1.0855923e+09  
         16.564   -0.00028853146          3.24331         3549.647    1.0855923e+09  
         16.766   -0.00028834897          3.21792         3608.517    1.0855924e+09  
         16.969    -0.0002881653          3.19265         3667.386    1.0855924e+09  
         17.171   -0.00028797343          3.16753         3726.256    1.0855925e+09  
         17.373   -0.00028778561          3.14258         3785.126    1.0855926e+09  
         17.576   -0.00028759227          3.11777         3843.996    1.0855926e+09  
         17.778   -0.00028740456          3.09311         3902.867    1.0855927e+09  
         17.981   -0.00028720981          3.06866         3961.727    1.0855927e+09  
         18.183   -0.00028698854          3.04438         4020.596    1.0855928e+09  
         18.385   -0.00028676618          3.02026         4079.406    1.0855929e+09  
         18.588   -0.00028654298          2.99627         4138.276    1.0855929e+09  
          18.79   -0.00028633736          2.97248         4197.137     1.085593e+09  
         18.993   -0.00028610734          2.94881         4256.076     1.085593e+09  
         19.195   -0.00028589561          2.92535         4314.937    1.0855931e+09  
         19.397   -0.00028566047          2.90205         4373.807    1.0855932e+09  
           19.6   -0.00028542911          2.87889         4432.677    1.0855932e+09  
         19.803   -0.00028520282          2.85587         4491.617    1.0855933e+09  
         20.005   -0.00028497201          2.83307         4550.537    1.0855933e+09  
         20.208     -0.000284727          2.81045         4609.406    1.0855934e+09  
          20.41   -0.00028448935            2.788         4668.276    1.0855935e+09  
         20.612   -0.00028426736          2.76574         4727.146    1.0855935e+09  
         20.815   -0.00028401483          2.74361         4786.016    1.0855936e+09  
         21.017   -0.00028376282          2.72166         4844.886    1.0855936e+09  
         21.219   -0.00028350418          2.69992         4903.747    1.0855937e+09  
          21.42   -0.00028324728           2.6784         4962.556    1.0855937e+09  
         21.622   -0.00028299177            2.657         5021.486    1.0855938e+09  
         21.823   -0.00028270386          2.63576         5080.356    1.0855939e+09  
         22.024   -0.00028243151          2.61476         5139.226    1.0855939e+09  
         22.226   -0.00028216213          2.59388         5198.096     1.085594e+09  
         22.427   -0.00028190038          2.57322         5256.957     1.085594e+09  
         22.629   -0.00028162177           2.5527         5315.827    1.0855941e+09  
         22.831   -0.00028133794          2.53238         5374.696    1.0855942e+09  
         23.032   -0.00028108245          2.51223         5433.566    1.0855942e+09  
         23.234    -0.0002807896           2.4923         5492.436    1.0855943e+09  
         23.435   -0.00028052177          2.47256         5551.306    1.0855943e+09  
         23.637   -0.00028023594          2.45296         5610.236    1.0855944e+09  
         23.839   -0.00027993377          2.43359         5669.106    1.0855945e+09  
         24.041   -0.00027965147          2.41438         5727.967    1.0855945e+09  
         24.242   -0.00027934759          2.39538         5786.837    1.0855946e+09  
         24.444   -0.00027905878          2.37656         5845.706    1.0855946e+09  
         24.646   -0.00027875289          2.35791         5904.637    1.0855947e+09  
         24.847   -0.00027843915           2.3395         5963.507    1.0855947e+09  
         25.049   -0.00027813653          2.32124         6022.376    1.0855948e+09  
         25.251   -0.00027783904          2.30317         6081.246    1.0855949e+09  
         25.454   -0.00027753349          2.28523         6140.116    1.0855949e+09  
         25.657   -0.00027718654          2.26752         6198.986     1.085595e+09  
         25.858   -0.00027688092          2.25005         6257.786     1.085595e+09  
          26.06   -0.00027678062          2.23278         6316.656    1.0855951e+09  
         26.262   -0.00027646751           2.2157         6375.526    1.0855952e+09  
         26.464   -0.00027611417          2.19883         6434.396    1.0855952e+09  
         26.666   -0.00027581594          2.18216         6493.326    1.0855953e+09  
         26.868   -0.00027548595          2.16568         6552.196    1.0855953e+09  
          27.07   -0.00027513853          2.14939         6611.126    1.0855954e+09  
         27.273   -0.00027479447           2.1333         6669.927    1.0855955e+09  
         27.475   -0.00027446457          2.11738         6728.736    1.0855955e+09  
         27.679   -0.00027410239          2.10165         6787.606    1.0855956e+09  
         27.883   -0.00027376678          2.08609         6846.476    1.0855956e+09  
         28.087   -0.00027338906          2.07076         6905.337    1.0855957e+09  
          28.29    -0.0002730901          2.05572         6964.207    1.0855957e+09  
         28.492     -0.000272748          2.04095         7023.017    1.0855958e+09  
         28.693   -0.00027238576          2.02649         7081.886    1.0855959e+09  
         28.894   -0.00027200558           2.0123         7140.756    1.0855959e+09  
         29.094   -0.00027159681          1.99834         7199.617     1.085596e+09  
         29.298   -0.00027116066          1.98436         7257.426     1.085596e+09  
         29.498   -0.00027077678          1.97084         7313.917    1.0855961e+09  
         29.701   -0.00027037689          1.95735         7370.416    1.0855962e+09  
         29.901   -0.00027000911          1.94428         7424.536    1.0855962e+09  
         30.102   -0.00026960574          1.93139         7477.466    1.0855963e+09  
         30.305   -0.00026918675          1.91861         7530.396    1.0855963e+09  
         30.508   -0.00026877276          1.90601         7584.537    1.0855964e+09  
         30.709   -0.00026835266          1.89374         7641.076    1.0855964e+09  
          30.91   -0.00026790958          1.88167         7702.316    1.0855965e+09  
         31.114    -0.0002674687          1.86973         7770.686    1.0855966e+09  
         31.316   -0.00026530184          1.85808         7844.986    1.0855966e+09  
         31.516   -0.00026487009          1.84676         7921.666    1.0855967e+09  
         31.718   -0.00026441352          1.83559         7995.967    1.0855968e+09  
         31.923   -0.00026402122          1.82448         8058.336    1.0855968e+09  
         32.132   -0.00026363651          1.81338         8094.646    1.0855969e+09  
          32.34   -0.00026317885          1.80256         8121.456    1.0855969e+09  
         32.547   -0.00026269137          1.79199         8150.637    1.0855969e+09  
         32.753   -0.00026219742          1.78175         8184.576     1.085597e+09  
         32.956   -0.00026172601          1.77188         8225.636     1.085597e+09  
         33.156    -0.0002612672          1.76232         8277.376    1.0855971e+09  
         33.357   -0.00026082318          1.75299         8344.617    1.0855971e+09  
         33.559   -0.00026033491          1.74378         8429.607    1.0855972e+09  
          33.76   -0.00025989345          1.73488         8518.166    1.0855973e+09  
         33.962   -0.00025945386          1.72609         8592.466    1.0855974e+09  
         34.166   -0.00025888601          1.71744         8652.526    1.0855974e+09  
         34.369   -0.00025841019          1.70904         8707.827    1.0855975e+09  
         34.571   -0.00025787927          1.70089         8763.136    1.0855975e+09  
         34.772   -0.00025733311          1.69298         8819.627    1.0855976e+09  
         34.973   -0.00025677545          1.68528         8877.316    1.0855977e+09  
         35.175   -0.00025622411          1.67772         8936.177    1.0855977e+09  
         35.375    -0.0002555289          1.67044         8993.857    1.0855978e+09  
         35.577   -0.00025501256          1.66328         9051.546    1.0855978e+09  
         35.778   -0.00025448731          1.65638         9108.036    1.0855979e+09  
         35.982    -0.0002539664          1.64954         9165.716    1.0855979e+09  
         36.182   -0.00025340304          1.64302         9222.207     1.085598e+09  
         36.386   -0.00025299255          1.63656         9279.887    1.0855981e+09  
          36.59   -0.00025246893          1.63027         9337.576    1.0855981e+09  
         36.793   -0.00024960998          1.62416         9395.256    1.0855982e+09  
         36.994   -0.00024904166          1.61832         9451.807    1.0855982e+09  
         37.194   -0.00024842234          1.61266         9508.237    1.0855983e+09  
         37.395   -0.00024787245          1.60716         9564.736    1.0855983e+09  
         37.598   -0.00024718192          1.60178         9621.227    1.0855984e+09  
           37.8   -0.00024663982          1.59657         9677.726    1.0855985e+09  
             38   -0.00024614742          1.59157         9733.027    1.0855985e+09  
         38.201   -0.00024561666           1.5867         9788.276    1.0855986e+09  
         38.402   -0.00024509165          1.58197         9843.577    1.0855986e+09  
         38.607   -0.00024464461           1.5773         9900.076    1.0855987e+09  
         38.812   -0.00024404303          1.57278         9956.566    1.0855987e+09  
         39.013   -0.00024349429          1.56847        10011.936    1.0855988e+09  
         39.215   -0.00024293101          1.56431        10067.246    1.0855988e+09  
         39.417   -0.00024237923          1.56027        10122.557    1.0855989e+09  
          39.62   -0.00024177443          1.55635        10177.857     1.085599e+09  
         39.823   -0.00024117756          1.55255        10233.226     1.085599e+09  
         40.024   -0.00024059408          1.54891        10287.347    1.0855991e+09  
         40.225   -0.00023999062           1.5454        10341.466    1.0855991e+09  
         40.426   -0.00023941016          1.54198        10395.577    1.0855992e+09  
         40.629   -0.00023885045          1.53866        10449.697    1.0855992e+09  
         40.833   -0.00023824246          1.53543        10503.817    1.0855993e+09  
         41.034   -0.00023763531          1.53236        10556.747    1.0855993e+09  
         41.237   -0.00023703257          1.52936        10609.686    1.0855994e+09  
         41.441   -0.00023641857          1.52646        10662.556    1.0855994e+09  
         41.643   -0.00023571301          1.52368        10714.296    1.0855995e+09  
         41.845   -0.00023505816            1.521        10766.037    1.0855995e+09  
         42.046   -0.00023443239          1.51843        10817.846    1.0855996e+09  
          42.25   -0.00023372558          1.51589        10870.777    1.0855997e+09  
         42.452   -0.00023308199          1.51347        10922.586    1.0855997e+09  
         42.653   -0.00023235752          1.51115        10974.327    1.0855998e+09  
         42.855   -0.00023162738          1.50889        11027.266    1.0855998e+09  
         43.057   -0.00023092513          1.50672        11081.377    1.0855999e+09  
         43.257    -0.0002302008          1.50464        11135.497    1.0855999e+09  
         43.461   -0.00022950428           1.5026        11190.867       1.0856e+09  
         43.664   -0.00022877743          1.50063        11246.176       1.0856e+09  
         43.865   -0.00022804675          1.49876        11300.417    1.0856001e+09  
         44.068   -0.00022731895          1.49693        11354.536    1.0856001e+09  
         44.269   -0.00022660508          1.49518        11407.467    1.0856002e+09  
         44.472   -0.00022586156          1.49347        11461.587    1.0856002e+09  
         44.672   -0.00022569703          1.49184        11514.517    1.0856003e+09  
         44.876   -0.00022495795          1.49024        11568.637    1.0856004e+09  
         45.077   -0.00022415413          1.48872        11622.696    1.0856004e+09  
         45.279   -0.00022340407          1.48725        11676.816    1.0856005e+09  
          45.48   -0.00022266046          1.48583        11731.186    1.0856005e+09  
         45.683   -0.00022189975          1.48445        11785.306    1.0856006e+09  
         45.885     -0.000221149          1.48312        11838.236    1.0856006e+09  
         46.087   -0.00022040529          1.48184        11889.977    1.0856007e+09  
         46.287    -0.0002196557          1.48061        11939.347    1.0856007e+09  
         46.489   -0.00021888126          1.47941        11986.346    1.0856008e+09  
          46.69   -0.00021813716          1.47825        12034.526    1.0856008e+09  
         46.893   -0.00021734943          1.47712        12081.517    1.0856009e+09  
         47.096   -0.00021657341          1.47603        12129.706    1.0856009e+09  
         47.302   -0.00021575258          1.47496        12177.886     1.085601e+09  
         47.502   -0.00021501323          1.47395        12228.446     1.085601e+09  
         47.705   -0.00021418929          1.47296        12278.997    1.0856011e+09  
         47.909   -0.00021333533            1.472        12330.746    1.0856011e+09  
          48.11   -0.00021260448          1.47108        12384.866    1.0856012e+09  
          48.31   -0.00021182985          1.47019        12440.236    1.0856012e+09  
         48.512   -0.00021100503          1.46932        12497.916    1.0856013e+09  
         48.716   -0.00021017784          1.46847        12554.406    1.0856013e+09  
         48.918   -0.00020937668          1.46765        12612.086    1.0856014e+09  
         49.121   -0.00020858279          1.46685        12672.146    1.0856015e+09  
         49.325    -0.0002077489          1.46607        12729.886    1.0856015e+09  
         49.527   -0.00020695535          1.46532        12788.756    1.0856016e+09  
         49.735   -0.00020608479          1.46457        12846.497    1.0856016e+09  
          49.94   -0.00020524823          1.46385        12905.366    1.0856017e+09  
         50.143   -0.00020443867          1.46316        12964.236    1.0856017e+09  
