[FileHeader]
Idn=THEX 1.0 for LINUX
Insert=A
Cell=C
p_Cell=300 mB (RT)        
p_Heater=DiffP              
T_Slope=0.000000
H_Field=0.000000
K0=6.048000
CalFile=NULL
SampleSensor=GaAs9356
HeaterSensor=9243
L0=2.600000
SampleID=Silberstempel 2.60 mm CStart=4.78 pF
;
StartTime=Thu Jan  9 13:18:55 2003
EndTime=Fri Jan 10 04:41:21 2003
NoofCols=8
DataPoints=668
ColID1=t [s]
ColID2=Ts [K]
ColID3=Loss [GOhm]
ColID4=Ts-Th [K]
ColID5=PHeat [W]
ColID6=TotHeat [Ws]
ColID7=He-Level [%]
ColID8=Date [s]
#XMeas: CreationTime=Fri Jan 10 04:41:21 2003
@EOH
      1.1040000       20.277         -464   0.255 0.00       0.0000  85.4  1042115578
      154.62400       20.679         -464  -0.093 0.00       2.8625  85.3  1042115732
      226.57400       21.083         -462  -0.214 0.00       2.8625  85.2  1042115804
      291.65400       21.484         -460  -0.256 0.00       3.1945  85.2  1042115869
      356.95400       21.885         -459  -0.279 0.00       3.1945  85.2  1042115934
      424.36400       22.289         -465  -0.293 0.00       3.1945  85.3  1042116001
      492.88400       22.691         -464  -0.308 0.00       3.5265  85.2  1042116070
      563.70400       23.097         -463  -0.322 0.00       3.8595  85.2  1042116141
      635.67400       23.502         -457  -0.336 0.00       4.1920  85.2  1042116213
      708.79400       23.905         -468  -0.347 0.00       4.5255  85.3  1042116286
      783.05400       24.307         -466  -0.359 0.00       4.5255  85.1  1042116360
      858.46400       24.707         -471  -0.378 0.00       4.8580  85.1  1042116436
      936.14400       25.110         -468  -0.401 0.00       4.8580  85.1  1042116513
      1014.9440       25.511         -477  -0.408 0.00       4.8580  85.1  1042116592
      1095.1240       25.915         -470  -0.384 0.00       5.2010  85.0  1042116672
      1175.0940       26.315         -462  -0.378 0.00       5.2010  84.9  1042116752
      1257.2940       26.717         -469  -0.474 0.00       5.2010  85.0  1042116834
      1344.0940       27.121         -466  -0.618 0.00       5.2010  84.9  1042116921
      1433.2140       27.524         -472  -0.559 0.00       5.2010  85.0  1042117010
      1516.6140       27.927         -468  -0.074 0.00       5.2010  85.0  1042117094
      1596.6340       28.332         -465  -0.202 0.00       5.2585  85.0  1042117174
      1682.3340       28.735         -470  -0.566 0.00       5.2585  85.1  1042117259
      1773.7140       29.140         -470  -0.584 0.00       5.2585  85.0  1042117351
      1864.0140       29.541         -468  -0.566 0.00       5.2585  84.9  1042117441
      1954.2840       29.941         -468  -0.612 0.00       5.2585  84.8  1042117531
      2045.8640       30.343         -468  -0.640 0.00       5.2585  84.9  1042117623
      2138.4240       30.747         -485  -0.663 0.00       5.5905  84.8  1042117715
      2230.9550       31.148         -465  -0.695 0.00       5.6475  84.8  1042117808
      2323.4840       31.551         -455  -0.725 0.00       5.6475  84.7  1042117901
      2416.0640       31.952         -457  -0.752 0.00       5.6475  84.8  1042117993
      2509.7840       32.356         -460  -0.776 0.00       5.9800  84.8  1042118087
      2603.4840       32.760         -455  -0.801 0.00       6.3100  84.7  1042118181
      2697.2640       33.164         -460  -0.821 0.00       6.3675  84.6  1042118274
      2791.0640       33.568         -460  -0.839 0.00       6.7615  84.6  1042118368
      2884.8040       33.971         -456  -0.845 0.00       6.8190  84.5  1042118462
      2978.5440       34.374         -456  -0.848 0.00       6.8765  84.6  1042118556
      3073.5040       34.777         -457  -0.832 0.00       7.3275  84.5  1042118651
      3176.4240       35.181         -452  -0.784 0.00       11.798  84.5  1042118753
      3277.0940       35.586         -455  -0.828 0.05       17.988  84.6  1042118854
      3372.0240       35.989         -451  -0.852 0.10       24.856  84.4  1042118949
      3463.6740       36.395         -452  -0.911 0.10       32.245  84.4  1042119041
      3551.7540       36.795         -450  -0.963 0.10       39.850  84.4  1042119129
      3636.4340       37.196         -455  -0.980 0.10       48.318  84.4  1042119213
      3719.8940       37.600         -456  -0.987 0.10       56.320  84.3  1042119297
      3803.3240       38.004         -455  -1.000 0.10       64.663  84.5  1042119380
      3885.5850       38.407         -455  -1.007 0.10       72.889  84.3  1042119463
      3964.4540       38.813         -451  -0.998 0.10       82.094  84.2  1042119541
      4038.7140       39.216         -455  -0.974 0.15       91.297  84.2  1042119616
      4112.9740       39.620         -457  -0.942 0.10       100.20  84.2  1042119690
      4189.5040       40.022         -457  -0.921 0.10       108.76  84.1  1042119767
      4270.6740       40.425         -459  -0.923 0.10       117.49  84.2  1042119848
      4354.1540       40.826         -458  -0.938 0.10       126.07  84.1  1042119931
      4439.9440       41.229         -460  -0.965 0.10       135.55  84.0  1042120017
      4526.8440       41.632         -460  -0.996 0.10       145.72  84.1  1042120104
      4616.0440       42.035         -460  -1.042 0.10       155.44  84.1  1042120193
      4709.9940       42.436         -457  -1.110 0.10       164.67  84.0  1042120287
      4809.5440       42.836         -459  -1.210 0.10       174.29  84.1  1042120387
      4915.9540       43.236         -459  -1.337 0.10       184.93  84.0  1042120493
      5028.0240       43.638         -462  -1.500 0.10       195.81  84.0  1042120605
      5141.2740       44.040         -467  -1.658 0.10       206.92  83.9  1042120718
      5254.6240       44.442         -464  -1.818 0.15       218.82  83.9  1042120832
      5361.0240       44.845         -465  -1.948 0.15       234.04  83.8  1042120938
      5459.3940       45.249         -463  -2.027 0.15       248.52  83.8  1042121036
      5546.3340       45.653         -452  -2.058 0.20       265.52  83.9  1042121123
      5622.9540       46.053         -457  -2.039 0.25       283.32  83.7  1042121200
      5692.6540       46.460         -457  -1.987 0.25       300.41  83.9  1042121270
      5759.0040       46.870         -456  -1.917 0.25       316.66  83.7  1042121336
      5824.0940       47.274         -459  -1.836 0.25       332.60  83.8  1042121401
      5889.2440       47.680         -462  -1.769 0.20       348.49  83.7  1042121466
      5955.4940       48.083         -462  -1.696 0.20       363.81  83.6  1042121533
      6025.1440       48.487         -461  -1.640 0.20       377.81  83.6  1042121602
      6098.2740       48.888         -462  -1.606 0.20       393.07  83.6  1042121675
      6173.6240       49.288         -462  -1.580 0.20       408.25  83.7  1042121751
      6254.7040       49.696         -463  -1.581 0.20       424.08  83.7  1042121832
      6339.5040       50.104         -460  -1.601 0.20       440.36  83.7  1042121917
      6429.9940       50.510         -456  -1.659 0.15       458.12  83.6  1042122007
      6523.8040       50.913         -457  -1.695 0.20       476.04  83.6  1042122101
      6619.8540       51.315         -456  -1.732 0.30       493.25  83.5  1042122197
      6718.1840       51.716         -456  -1.774 0.35       508.55  83.3  1042122295
      6815.3840       52.121         -455  -2.030 0.10       526.40  83.4  1042122392
      6915.9840       52.525         -452  -2.247 0.00       551.29  83.5  1042122493
      7012.0040       52.926         -452  -2.225 0.15       577.36  83.3  1042122589
      7109.1440       53.326         -451  -2.120 0.50       595.73  83.4  1042122686
      7198.3640       53.729         -451  -2.359 0.10       611.30  83.3  1042122775
      7288.7740       54.130         -448  -2.434 0.10       645.34  83.3  1042122866
      7375.6140       54.532         -450  -2.240 0.55       658.98  83.2  1042122953
      7456.7740       54.932         -451  -2.558 0.05       682.82  83.3  1042123034
      7541.3740       55.336         -451  -2.343 0.45       710.40  83.2  1042123118
      7622.5640       55.737         -453  -2.474 0.15       721.93  83.2  1042123200
      7708.3240       56.138         -447  -2.504 0.20       760.55  83.1  1042123285
      7791.7640       56.545         -452  -2.374 0.45       769.66  83.2  1042123369
      7872.9340       56.951         -454  -2.625 0.00       802.07  83.1  1042123450
      7958.6350       57.355         -448  -2.337 0.65       822.75  83.0  1042123536
      8037.5040       57.758         -448  -2.667 0.00       846.10  83.1  1042123615
      8123.2440       58.163         -452  -2.413 0.55       876.66  83.1  1042123700
      8203.2340       58.566         -455  -2.616 0.05       890.08  82.9  1042123780
      8289.0440       58.970         -454  -2.496 0.40       932.03  83.0  1042123866
      8371.3840       59.376         -455  -2.560 0.30       940.62  83.0  1042123948
      8454.7840       59.782         -457  -2.627 0.20       985.29  82.8  1042124032
      8533.8640       60.183         -459  -2.508 0.45       992.68  82.8  1042124111
      8616.2340       60.583         -460  -2.703 0.05       1037.2  82.9  1042124193
      8697.3740       60.989         -459  -2.490 0.50       1048.8  82.8  1042124274
      8777.4340       61.395         -459  -2.731 0.00       1089.6  82.8  1042124354
      8861.9840       61.798         -460  -2.452 0.65       1107.4  82.9  1042124439
      8938.5340       62.200         -463  -2.759 0.00       1143.6  82.7  1042124516
      9025.4940       62.606         -463  -2.436 0.75       1165.5  82.8  1042124603
      9103.2640       63.009         -470  -2.819 0.00       1198.9  82.8  1042124680
      9187.8540       63.417         -463  -2.459 0.75       1225.3  82.6  1042124765
      9266.7240       63.828         -460  -2.804 0.05       1253.9  82.8  1042124844
      9352.5440       64.228         -463  -2.463 0.75       1286.9  82.5  1042124930
      9432.5340       64.631         -465  -2.810 0.05       1310.0  82.7  1042125010
      9519.3540       65.037         -464  -2.513 0.75       1352.0  82.5  1042125096
      9599.4140       65.447         -464  -2.826 0.05       1367.3  82.5  1042125176
      9686.2750       65.859         -465  -2.548 0.70       1417.8  82.5  1042125263
      9767.4540       66.266         -465  -2.841 0.10       1428.6  82.5  1042125344
      9851.0040       66.675         -467  -2.623 0.60       1482.2  82.5  1042125428
      9932.1440       67.087         -469  -2.824 0.20       1491.9  82.5  1042125509
      10020.164       67.493         -471  -2.727 0.45       1549.1  82.5  1042125597
      10096.664       67.893         -471  -2.802 0.25       1554.2  82.4  1042125674
      10181.254       68.295         -473  -2.741 0.40       1612.2  82.4  1042125758
      10261.234       68.699         -475  -2.803 0.35       1618.6  82.4  1042125838
      10343.544       69.104         -476  -2.759 0.40       1676.5  82.3  1042125921
      10426.944       69.511         -476  -2.780 0.40       1685.3  82.2  1042126004
      10511.584       69.911         -476  -2.854 0.20       1743.6  82.3  1042126089
      10590.414       70.320         -478  -2.787 0.40       1750.0  82.2  1042126167
      10677.334       70.722         -471  -2.921 0.10       1810.6  82.2  1042126254
      10759.654       71.134         -477  -2.789 0.55       1821.1  82.1  1042126337
      10845.674       71.546         -478  -2.976 0.00       1878.4  82.1  1042126423
      10930.244       71.958         -480  -2.736 0.70       1893.3  82.1  1042126507
      11011.384       72.364         -474  -3.040 0.00       1947.5  82.0  1042126588
      11100.544       72.769         -475  -2.767 0.80       1968.3  82.1  1042126678
      11181.764       73.174         -480  -3.114 0.00       2017.1  82.0  1042126759
      11266.374       73.580         -490  -2.748 0.85       2039.6  81.9  1042126843
      11350.964       73.986         -481  -3.190 0.00       2087.1  81.9  1042126928
      11436.794       74.392         -482  -2.771 0.95       2115.9  82.0  1042127014
      11520.284       74.798         -484  -3.259 0.00       2159.7  82.0  1042127097
      11609.524       75.204         -494  -2.817 1.00       2196.3  81.9  1042127187
      11690.764       75.609         -488  -3.277 0.05       2230.7  81.8  1042127268
      11781.215       76.015         -484  -2.904 0.90       2276.7  81.9  1042127358
      11864.714       76.420         -480  -3.284 0.05       2300.8  81.8  1042127442
      11953.984       76.826         -485  -2.946 0.90       2360.2  81.7  1042127531
      12037.504       77.230         -484  -3.349 0.10       2375.4  81.9  1042127615
      12128.934       77.643         -481  -3.078 0.75       2442.0  81.7  1042127706
      12211.234       78.048         -487  -3.382 0.15       2452.3  81.7  1042127788
      12300.424       78.451         -487  -3.203 0.60       2521.2  81.7  1042127877
      12382.754       78.855         -487  -3.385 0.25       2528.5  81.5  1042127960
      12471.934       79.266         -489  -3.317 0.40       2599.8  81.6  1042128049
      12558.774       79.669         -488  -3.332 0.55       2608.5  81.6  1042128136
      12643.495       80.071         -490  -3.415 0.25       2679.4  81.5  1042128221
      12731.614       80.472         -492  -3.365 0.60       2691.4  81.5  1042128309
      12816.294       80.881         -489  -3.524 0.05       2759.6  81.5  1042128393
      12904.344       81.281         -493  -3.359 0.80       2774.7  81.4  1042128481
      12991.274       81.688         -533  -3.694 0.00       2840.2  81.4  1042128568
      13082.774       82.095         -531  -3.388 0.95       2864.4  81.4  1042128660
      13167.514       82.500         -501  -3.804 0.00       2920.7  81.5  1042128745
      13259.114       82.905         -494  -3.420 1.05       2955.3  81.2  1042128836
      13340.274       83.309         -491  -3.878 0.00       3001.6  81.3  1042128917
      13431.804       83.712         -498  -3.450 1.10       3043.8  81.4  1042129009
      13515.234       84.115         -496  -3.966 0.05       3084.3  81.3  1042129092
      13604.434       84.516         -498  -3.540 1.05       3131.4  81.3  1042129181
      13691.334       84.932         -498  -3.961 0.05       3164.7  81.2  1042129268
      13786.304       85.347         -493  -3.648 0.90       3233.3  81.2  1042129363
      13874.314       85.753         -494  -3.974 0.20       3249.5  81.1  1042129451
      13965.804       86.166         -493  -3.821 0.65       3330.3  80.9  1042129543
      14054.974       86.570         -488  -4.002 0.45       3340.7  81.0  1042129632
      14141.874       86.972         -490  -4.011 0.35       3419.9  81.0  1042129719
      14227.574       87.382         -488  -4.001 0.55       3429.4  80.9  1042129805
      14317.984       87.782         -491  -4.157 0.05       3508.7  80.8  1042129895
      14407.154       88.189         -485  -4.030 0.80       3525.6  81.0  1042129984
      14497.524       88.595         -487  -4.331 0.00       3596.2  81.0  1042130075
      14586.754       88.999         -485  -3.978 1.10       3623.3  80.7  1042130164
      14673.664       89.403         -485  -4.436 0.00       3689.1  80.7  1042130251
      14763.984       89.813         -485  -4.047 1.15       3723.6  80.7  1042130341
      14852.324       90.229         -485  -4.537 0.00       3781.3  80.7  1042130429
      14947.214       90.644         -490  -4.084 1.30       3832.6  80.8  1042130524
      15033.024       91.050         -488  -4.628 0.00       3875.7  80.6  1042130610
      15125.674       91.470         -491  -4.179 1.20       3937.2  80.6  1042130703
      15212.574       91.874         -487  -4.651 0.05       3969.0  80.6  1042130790
      15302.974       92.284         -488  -4.244 1.15       4042.4  80.5  1042130880
      15387.554       92.693         -488  -4.722 0.05       4066.3  80.4  1042130965
      15481.394       93.100         -482  -4.360 1.15       4147.8  80.4  1042131058
      15566.064       93.513         -478  -4.761 0.15       4166.7  80.5  1042131143
      15656.424       93.917         -477  -4.457 1.05       4251.7  80.4  1042131233
      15741.095       94.326         -478  -4.818 0.15       4267.9  80.2  1042131318
      15830.294       94.735         -478  -4.517 1.00       4355.2  80.2  1042131407
      15916.074       95.141         -471  -4.853 0.20       4371.6  80.4  1042131493
      16005.274       95.545         -475  -4.591 1.00       4460.8  80.3  1042131582
      16086.534       95.948         -472  -4.917 0.15       4474.6  80.2  1042131664
      16180.344       96.348         -475  -4.655 1.00       4567.6  80.2  1042131757
      16260.434       96.754         -477  -5.007 0.10       4581.3  80.2  1042131837
      16348.524       97.157         -474  -4.623 1.25       4667.6  80.0  1042131926
      16430.834       97.559         -477  -5.077 0.05       4690.1  80.1  1042132008
      16522.324       97.973         -474  -4.668 1.25       4774.8  80.1  1042132099
      16605.854       98.379         -478  -5.116 0.05       4799.9  80.2  1042132183
      16695.074       98.782         -478  -4.685 1.40       4882.5  80.0  1042132272
      16773.984       99.185         -480  -5.189 0.00       4911.9  80.0  1042132351
      16865.554       99.592         -480  -4.719 1.40       4986.9  80.0  1042132443
      16946.754       100.01         -478  -5.221 0.00       5025.0  80.0  1042132524
      17039.524       100.41         -478  -4.777 1.40       5097.2  79.9  1042132617
      17117.304       100.81         -475  -5.238 0.00       5139.4  79.9  1042132694
      17208.814       101.22         -478  -4.770 1.45       5203.0  79.7  1042132786
      17288.904       101.63         -478  -5.263 0.00       5256.4  79.8  1042132866
      17376.974       102.03         -477  -4.804 1.45       5308.0  79.7  1042132954
      17459.234       102.45         -477  -5.258 0.00       5377.3  79.9  1042133036
      17548.444       102.85         -480  -4.840 1.40       5418.9  79.7  1042133125
      17627.334       103.25         -477  -5.216 0.05       5502.0  79.6  1042133204
      17710.834       103.66         -480  -4.984 1.00       5521.8  79.6  1042133288
      17790.914       104.06         -477  -5.083 0.65       5624.4  79.7  1042133368
      17875.544       104.46         -480  -5.166 0.50       5635.3  79.7  1042133453
      17957.954       104.87         -478  -4.989 1.10       5740.1  79.5  1042133535
      18040.224       105.27         -478  -5.309 0.15       5757.2  79.5  1042133617
      18124.904       105.67         -481  -4.915 1.45       5850.4  79.5  1042133702
      18201.594       106.08         -481  -5.400 0.00       5885.9  79.5  1042133779
      18287.424       106.49         -482  -4.907 1.55       5953.3  79.4  1042133864
      18365.224       106.89         -478  -5.345 0.00       6016.3  79.3  1042133942
      18448.734       107.30         -481  -4.915 1.35       6055.4  79.4  1042134026
      18526.424       107.71         -480  -5.190 0.30       6151.6  79.3  1042134103
      18608.704       108.11         -480  -5.067 0.80       6164.9  79.3  1042134186
      18693.274       108.52         -480  -5.055 0.90       6279.6  79.3  1042134270
      18773.284       108.93         -477  -5.231 0.35       6292.5  79.4  1042134350
      18855.614       109.34         -477  -4.890 1.50       6393.1  79.3  1042134433
      18929.954       109.74         -478  -5.341 0.05       6428.7  79.2  1042134507
      19014.634       110.14         -478  -4.857 1.60       6497.6  79.1  1042134592
      19088.924       110.55         -475  -5.246 0.00       6568.5  79.1  1042134666
      19172.364       110.96         -478  -4.897 1.25       6600.2  79.1  1042134749
      19247.984       111.36         -480  -5.038 0.75       6706.7  79.1  1042134825
