[FileHeader]
Idn=THEX 1.0 for LINUX
Insert=A
Cell=C
p_Cell=300mB(RT)          
p_Heater=2E-2 mB (4K)       
T_Slope=0.000000
H_Field=0.000000
K0=6.048000
CalFile=NULL
SampleSensor=GaAs9356
HeaterSensor=9243
L0=1.740000
SampleID=YbGaGe E. Bauer AgSt=1.57mm erste Messung
;
StartTime=Wed May 26 18:22:53 2004
EndTime=Thu May 27 01:54:24 2004
NoofCols=8
DataPoints=470
ColID1=t [s]
ColID2=Ts [K]
ColID3=Loss [GOhm]
ColID4=Ts-Th [K]
ColID5=PHeat [W]
ColID6=TotHeat [Ws]
ColID7=He-Level [%]
ColID8=Date [s]
#XMeas: CreationTime=Thu May 27 01:54:24 2004
@EOH
      1.1160000       4.6183      -302.68   0.190 0.00       0.0000  87.1  1085588783
      206.27600       4.8220       -303.1   0.208 0.00       0.0000  87.0  1085588989
      264.01600       5.0244       -302.8   0.237 0.00       0.0000  87.1  1085589046
      321.69600       5.2250       -302.9   0.266 0.00       0.0000  87.0  1085589104
      379.37600       5.4291       -302.7   0.297 0.00       0.0000  87.0  1085589162
      435.93600       5.6317       -302.8   0.329 0.00       0.0000  87.0  1085589218
      491.23700       5.8333       -303.4   0.366 0.00       0.0000  86.9  1085589274
      547.82600       6.0369       -303.4   0.401 0.05       2.2570  86.9  1085589330
      601.97700       6.2389       -303.4   0.439 0.05       4.9646  87.0  1085589384
      657.84600       6.4426       -303.4   0.477 0.05       7.7580  86.8  1085589440
      713.09600       6.6463       -303.3   0.514 0.05       10.520  86.8  1085589495
      768.39700       6.8496       -303.5   0.552 0.05       13.286  86.8  1085589551
      823.82700       7.0532       -303.7   0.589 0.05       16.057  86.8  1085589606
      879.13800       7.2556       -303.7   0.626 0.05       18.823  86.8  1085589661
      934.44600       7.4579       -304.1   0.662 0.05       21.588  86.7  1085589717
      989.75600       7.6599       -303.8   0.698 0.05       24.354  86.8  1085589772
      1044.9960       7.8612       -303.8   0.733 0.10       28.359  86.7  1085589827
      1100.2970       8.0630       -304.1   0.769 0.10       33.889  86.8  1085589883
      1155.6060       8.2641         -304   0.805 0.10       39.420  86.7  1085589938
      1210.9070       8.4645       -303.8   0.840 0.10       44.950  86.6  1085589993
      1267.4670       8.6686       -303.8   0.874 0.10       50.606  86.6  1085590050
      1324.0260       8.8717       -303.6   0.907 0.10       56.262  86.5  1085590106
      1380.5770       9.0739       -304.1   0.939 0.10       61.917  86.6  1085590163
      1437.1360       9.2753       -303.2   0.971 0.10       67.573  86.5  1085590219
      1494.8770       9.4795       -303.2   1.002 0.10       73.347  86.6  1085590277
      1552.5670       9.6826       -303.7   1.032 0.15       81.823  86.6  1085590335
      1610.2460       9.8850       -303.2   1.062 0.15       90.475  86.5  1085590393
      1669.1070       10.089       -303.2   1.090 0.15       99.304  86.5  1085590451
      1726.7870       10.291         -303   1.119 0.15       107.96  86.4  1085590509
      1784.4760       10.492       -303.6   1.146 0.15       116.61  86.5  1085590567
      1843.3370       10.696         -304   1.174 0.15       125.44  86.3  1085590626
      1902.1460       10.899       -303.6   1.200 0.15       134.26  86.4  1085590684
      1961.0160       11.102       -303.6   1.227 0.20       143.21  86.5  1085590743
      2019.8860       11.305       -304.9   1.253 0.20       154.59  86.2  1085590802
      2078.7560       11.508       -305.1   1.279 0.20       166.37  86.3  1085590861
      2137.6970       11.710         -305   1.305 0.20       178.15  86.2  1085590920
      2196.6160       11.912       -304.5   1.330 0.20       189.94  86.2  1085590979
      2255.4860       12.113       -304.7   1.355 0.20       201.71  86.1  1085591038
      2314.4160       12.317       -304.7   1.381 0.20       213.50  86.2  1085591097
      2373.2860       12.519       -304.5   1.407 0.20       225.27  86.2  1085591156
      2432.1470       12.721       -304.4   1.433 0.25       238.56  86.0  1085591214
      2491.0160       12.922       -304.2   1.457 0.25       252.95  86.1  1085591273
      2549.8970       13.124       -303.8   1.482 0.25       267.67  85.9  1085591332
      2608.8160       13.326       -303.7   1.508 0.25       282.40  85.9  1085591391
      2667.6860       13.528       -303.9   1.533 0.25       297.12  85.9  1085591450
      2726.5670       13.730       -303.6   1.558 0.25       311.84  85.8  1085591509
      2785.4260       13.932       -303.9   1.583 0.25       326.55  85.8  1085591568
      2844.3560       14.135         -304   1.610 0.30       341.80  85.8  1085591627
      2903.2260       14.337       -303.8   1.635 0.30       359.13  85.7  1085591686
      2962.0870       14.539       -304.4   1.661 0.30       376.78  85.8  1085591744
      3020.9770       14.741       -304.4   1.686 0.30       394.45  85.7  1085591803
      3079.8870       14.944       -304.2   1.713 0.30       412.12  85.7  1085591862
      3138.7570       15.146       -304.4   1.738 0.30       429.79  85.5  1085591921
      3197.6260       15.349       -304.3   1.765 0.30       447.45  85.7  1085591980
      3256.4960       15.551       -304.5   1.791 0.35       466.03  85.6  1085592039
      3315.3660       15.755       -304.5   1.818 0.35       486.58  85.6  1085592098
      3373.0460       15.956       -304.2   1.846 0.35       506.77  85.6  1085592155
      3431.9160       16.159       -304.5   1.872 0.35       527.37  85.6  1085592214
      3490.7860       16.362       -304.3   1.898 0.35       547.97  85.5  1085592273
      3549.6470       16.564       -304.6   1.923 0.35       568.58  85.6  1085592332
      3608.5170       16.766       -304.5   1.949 0.35       589.18  85.4  1085592391
      3667.3860       16.969       -304.7   1.976 0.40       611.30  85.3  1085592450
      3726.2560       17.171       -305.1   2.001 0.40       634.52  85.3  1085592509
      3785.1260       17.373       -304.9   2.027 0.40       658.07  85.3  1085592567
      3843.9960       17.576       -305.2   2.052 0.40       681.62  85.3  1085592626
      3902.8670       17.778       -305.2   2.078 0.40       705.17  85.1  1085592685
      3961.7270       17.981       -304.3   2.105 0.40       728.71  85.1  1085592744
      4020.5960       18.183       -303.6   2.130 0.40       752.26  85.2  1085592803
      4079.4060       18.385       -303.8   2.156 0.45       778.19  85.1  1085592862
      4138.2760       18.588         -304   2.182 0.45       804.68  85.1  1085592921
      4197.1370       18.790       -303.7   2.208 0.45       831.17  85.0  1085592979
      4256.0760       18.993       -303.8   2.233 0.45       857.69  84.8  1085593038
      4314.9370       19.195       -303.7   2.259 0.45       884.18  84.8  1085593097
      4373.8070       19.397       -304.8   2.284 0.45       910.67  84.7  1085593156
      4432.6770       19.600       -305.1   2.311 0.50       937.52  84.8  1085593215
      4491.6170       19.803       -304.9   2.337 0.50       966.99  84.7  1085593274
      4550.5370       20.005         -305   2.362 0.50       996.45  84.7  1085593333
      4609.4060       20.208       -305.5   2.389 0.50       1025.9  84.7  1085593392
      4668.2760       20.410       -305.4   2.414 0.50       1055.3  84.5  1085593451
      4727.1460       20.612       -305.4   2.440 0.50       1084.7  84.6  1085593509
      4786.0160       20.815       -305.5   2.466 0.50       1114.2  84.5  1085593568
      4844.8860       21.017       -305.1   2.491 0.55       1145.6  84.5  1085593627
      4903.7470       21.219       -304.9   2.517 0.55       1178.0  84.5  1085593686
      4962.5560       21.420       -305.2   2.542 0.55       1210.3  84.5  1085593745
      5021.4860       21.622       -305.2   2.567 0.55       1242.7  84.4  1085593804
      5080.3560       21.823       -305.5   2.591 0.55       1275.1  84.2  1085593863
      5139.2260       22.024       -305.2   2.616 0.55       1307.5  84.1  1085593922
      5198.0960       22.226       -305.1   2.641 0.60       1340.7  84.2  1085593980
      5256.9570       22.427       -305.5   2.665 0.60       1375.7  84.1  1085594039
      5315.8270       22.629       -305.3   2.691 0.60       1411.0  84.0  1085594098
      5374.6960       22.831       -305.3   2.716 0.60       1446.3  84.0  1085594157
      5433.5660       23.032       -305.1   2.741 0.60       1481.6  84.2  1085594216
      5492.4360       23.234       -305.4   2.766 0.60       1516.9  83.9  1085594275
      5551.3060       23.435       -305.6   2.790 0.60       1552.3  83.9  1085594334
      5610.2360       23.637       -305.9   2.816 0.65       1590.5  83.9  1085594393
      5669.1060       23.839       -305.9   2.841 0.65       1628.7  83.9  1085594451
      5727.9670       24.041       -305.9   2.866 0.65       1667.0  83.7  1085594510
      5786.8370       24.242       -305.7   2.891 0.65       1705.2  83.6  1085594569
      5845.7060       24.444       -305.4   2.916 0.65       1743.5  83.6  1085594628
      5904.6370       24.646       -305.5   2.942 0.65       1781.8  83.6  1085594687
      5963.5070       24.847       -304.9   2.966 0.70       1822.7  83.6  1085594746
      6022.3760       25.049         -305   2.992 0.70       1863.6  83.5  1085594805
      6081.2460       25.251       -305.1   3.017 0.70       1904.4  83.4  1085594864
      6140.1160       25.454       -305.2   3.043 0.70       1945.7  83.3  1085594922
      6198.9860       25.657       -305.4   3.069 0.70       1986.9  83.4  1085594981
      6257.7860       25.858       -304.8   3.094 0.70       2028.0  83.4  1085595040
      6316.6560       26.060       -305.2   3.119 0.75       2071.3  83.1  1085595099
      6375.5260       26.262       -305.3   3.145 0.75       2115.1  83.2  1085595158
      6434.3960       26.464       -305.1   3.170 0.75       2158.9  83.1  1085595217
      6493.3260       26.666       -305.2   3.195 0.75       2203.1  83.0  1085595276
      6552.1960       26.868       -305.2   3.221 0.75       2247.3  83.1  1085595335
      6611.1260       27.070       -305.1   3.246 0.75       2291.5  82.9  1085595393
      6669.9270       27.273       -304.7   3.272 0.80       2337.3  82.8  1085595452
      6728.7360       27.475       -304.9   3.298 0.80       2384.3  82.9  1085595511
      6787.6060       27.679       -305.2   3.326 0.80       2431.1  82.9  1085595570
      6846.4760       27.883       -304.2   3.353 0.80       2478.2  82.9  1085595629
      6905.3370       28.087       -304.3   3.380 0.80       2525.3  82.7  1085595688
      6964.2070       28.290       -304.1   3.407 0.80       2572.3  82.5  1085595747
      7023.0170       28.492       -304.1   3.432 0.85       2620.3  82.6  1085595805
      7081.8860       28.693       -304.1   3.456 0.85       2670.3  82.6  1085595864
      7140.7560       28.894       -304.1   3.481 0.85       2720.4  82.4  1085595923
      7199.6170       29.094         -304   3.511 0.85       2770.1  82.3  1085595982
      7257.4260       29.298       -304.4   3.535 0.85       2819.2  82.4  1085596040
      7313.9170       29.498       -304.5   3.567 0.85       2867.2  82.4  1085596096
      7370.4160       29.701       -304.7   3.601 0.90       2917.7  82.2  1085596153
      7424.5360       29.901       -304.3   3.639 0.90       2966.1  82.2  1085596207
      7477.4660       30.102       -304.4   3.680 0.90       3013.4  82.1  1085596260
      7530.3960       30.305       -304.1   3.723 0.90       3061.1  82.2  1085596313
      7584.5370       30.508       -304.5   3.761 0.90       3109.8  82.0  1085596367
      7641.0760       30.709       -304.7   3.791 0.90       3160.7  82.0  1085596423
      7702.3160       30.910       -304.7   3.808 0.90       3215.8  81.9  1085596485
      7770.6860       31.114       -304.2   3.807 0.90       3277.3  81.9  1085596553
      7844.9860       31.316       -304.6   3.788 0.90       3344.2  81.8  1085596627
      7921.6660       31.516       -305.1   3.760 0.95       3417.0  81.6  1085596704
      7995.9670       31.718       -305.1   3.747 0.95       3487.6  81.6  1085596778
      8058.3360       31.923       -304.7   3.830 1.05       3549.4  81.7  1085596841
      8094.6460       32.132       -304.4   3.821 1.05       3592.3  81.7  1085596877
      8121.4560       32.340       -304.7   3.942 1.00       3619.5  81.4  1085596904
      8150.6370       32.547       -304.7   4.069 1.00       3648.7  81.5  1085596933
      8184.5760       32.753       -304.7   4.180 1.00       3682.6  81.6  1085596967
      8225.6360       32.956       -304.4   4.268 1.00       3723.7  81.4  1085597008
      8277.3760       33.156       -304.6   4.320 1.00       3775.4  81.4  1085597060
      8344.6170       33.357       -304.5   4.324 1.00       3842.7  81.2  1085597127
      8429.6070       33.559       -304.5   4.277 1.00       3927.3  81.2  1085597212
      8518.1660       33.760       -304.4   4.221 1.05       4016.2  80.9  1085597301
      8592.4660       33.962       -304.3   4.207 1.05       4093.9  81.0  1085597375
      8652.5260       34.166       -304.7   4.220 1.05       4157.0  80.8  1085597435
      8707.8270       34.369       -304.1   4.253 1.05       4215.0  80.8  1085597490
      8763.1360       34.571       -303.8   4.289 1.05       4273.1  80.8  1085597545
      8819.6270       34.772         -303   4.321 1.10       4333.2  80.6  1085597602
      8877.3160       34.973         -303   4.350 1.10       4396.7  80.6  1085597660
      8936.1770       35.175       -303.4   4.376 1.10       4461.1  80.4  1085597719
      8993.8570       35.375       -303.1   4.404 1.10       4524.2  80.5  1085597776
      9051.5460       35.577       -302.9   4.432 1.10       4587.6  80.4  1085597834
      9108.0360       35.778       -302.7   4.463 1.10       4649.8  80.2  1085597890
      9165.7160       35.982       -302.7   4.494 1.15       4714.4  80.2  1085597948
      9222.2070       36.182       -302.6   4.525 1.15       4779.3  80.2  1085598005
      9279.8870       36.386       -302.3   4.556 1.15       4845.7  80.2  1085598062
      9337.5760       36.590       -302.9   4.587 1.15       4912.0  80.0  1085598120
      9395.2560       36.793       -302.7   4.616 1.15       4978.3  80.0  1085598178
      9451.8070       36.994       -302.3   4.648 1.15       5043.4  79.9  1085598234
      9508.2370       37.194       -302.3   4.679 1.20       5108.4  79.8  1085598291
      9564.7360       37.395       -301.9   4.710 1.20       5175.8  79.8  1085598347
      9621.2270       37.598       -302.2   4.744 1.20       5243.6  79.8  1085598404
      9677.7260       37.800       -301.8   4.781 1.20       5311.4  79.7  1085598460
      9733.0270       38.000       -301.9   4.810 1.20       5377.8  79.7  1085598515
      9788.2760       38.201       -302.2   4.845 1.20       5444.1  79.4  1085598571
      9843.5770       38.402       -302.6   4.881 1.20       5510.5  79.6  1085598626
      9900.0760       38.607         -303   4.917 1.25       5581.1  79.5  1085598682
      9956.5660       38.812       -303.4   4.953 1.25       5651.7  79.3  1085598739
      10011.936       39.013       -303.7   4.987 1.25       5720.6  79.2  1085598794
      10067.246       39.215       -303.6   5.023 1.25       5789.4  79.3  1085598850
      10122.557       39.417       -303.7   5.060 1.25       5858.5  79.2  1085598905
      10177.857       39.620         -304   5.097 1.30       5927.8  79.1  1085598960
      10233.226       39.823         -304   5.134 1.30       5999.3  79.1  1085599016
      10287.347       40.024       -304.2   5.172 1.30       6069.7  79.2  1085599070
      10341.466       40.225       -304.2   5.211 1.30       6140.1  79.0  1085599124
      10395.577       40.426       -304.1   5.250 1.30       6210.1  78.8  1085599178
      10449.697       40.629         -303   5.290 1.30       6280.4  78.8  1085599232
      10503.817       40.833       -302.6   5.332 1.35       6351.3  78.7  1085599286
      10556.747       41.034       -305.3   5.374 1.35       6422.3  78.7  1085599339
      10609.686       41.237       -303.8   5.419 1.35       6493.5  78.5  1085599392
      10662.556       41.441       -303.8   5.464 1.35       6564.8  78.6  1085599445
      10714.296       41.643       -303.7   5.509 1.35       6634.7  78.2  1085599497
      10766.037       41.845       -303.5   5.556 1.35       6704.5  78.3  1085599548
      10817.846       42.046       -303.4   5.601 1.35       6774.5  78.3  1085599600
      10870.777       42.250       -301.6   5.647 1.40       6848.1  78.1  1085599653
      10922.586       42.452       -299.1   5.691 1.40       6920.6  78.0  1085599705
      10974.327       42.653       -298.8   5.737 1.40       6993.0  78.1  1085599757
      11027.266       42.855       -298.9   5.781 1.40       7066.8  78.1  1085599810
      11081.377       43.057       -298.8   5.821 1.40       7142.2  77.8  1085599864
      11135.497       43.257       -298.8   5.860 1.40       7218.0  77.7  1085599918
      11190.867       43.461       -298.8   5.899 1.40       7295.5  77.7  1085599973
      11246.176       43.664       -299.1   5.936 1.45       7374.7  77.5  1085600029
      11300.417       43.865       -301.6   5.975 1.45       7453.0  77.5  1085600083
      11354.536       44.068         -302   6.015 1.45       7531.1  77.4  1085600137
      11407.467       44.269       -301.8   6.057 1.45       7607.5  77.4  1085600190
      11461.587       44.472       -301.9   6.096 1.45       7685.7  77.3  1085600244
      11514.517       44.672         -302   6.137 1.45       7762.4  77.3  1085600297
      11568.637       44.876       -302.2   6.179 1.45       7840.9  77.2  1085600351
      11622.696       45.077       -302.2   6.217 1.50       7921.1  77.0  1085600405
      11676.816       45.279       -302.6   6.258 1.50       8001.9  77.0  1085600459
      11731.186       45.480       -302.6   6.299 1.50       8083.5  77.0  1085600514
      11785.306       45.683       -302.6   6.341 1.50       8164.3  76.9  1085600568
      11838.236       45.885       -302.7   6.386 1.55       8244.7  76.8  1085600621
      11889.977       46.087       -302.5   6.434 1.55       8324.9  76.5  1085600672
      11939.347       46.287       -302.4   6.485 1.55       8401.1  76.6  1085600722
      11986.346       46.489       -302.7   6.543 1.55       8473.9  76.6  1085600769
      12034.526       46.690       -303.2   6.597 1.55       8548.6  76.6  1085600817
      12081.517       46.893       -302.7   6.656 1.55       8621.4  76.4  1085600864
      12129.706       47.096       -302.7   6.712 1.55       8696.1  76.3  1085600912
      12177.886       47.302       -302.6   6.775 1.55       8770.8  76.2  1085600960
      12228.446       47.502       -302.7   6.822 1.55       8849.6  76.3  1085601011
      12278.997       47.705       -302.6   6.873 1.55       8928.6  76.1  1085601061
      12330.746       47.909         -302   6.921 1.55       9010.8  76.2  1085601113
      12384.866       48.110       -303.5   6.962 1.60       9097.3  76.0  1085601167
      12440.236       48.310         -301   6.994 1.60       9185.9  75.9  1085601223
      12497.916       48.512       -302.4   7.026 1.60       9278.2  75.8  1085601280
      12554.406       48.716       -301.4   7.062 1.60       9368.3  75.8  1085601337
      12612.086       48.918       -302.4   7.090 1.60       9460.2  75.8  1085601394
      12672.146       49.121       -301.8   7.115 1.60       9556.3  75.5  1085601454
      12729.886       49.325       -301.9   7.144 1.65       9650.9  75.5  1085601512
      12788.756       49.527       -302.2   7.168 1.65       9747.7  75.5  1085601571
      12846.497       49.735       -301.9   7.204 1.65       9842.6  75.3  1085601629
      12905.366       49.940       -302.2   7.231 1.65       9939.4  75.3  1085601688
      12964.236       50.143       -302.3   7.254 1.65       10036.  75.1  1085601747
